25 1001																							
Paul S. Monks																							
"Dept. of Chemistry, University of Leicester, UK"																							
J(O1D) data																							
ACSOE OXICOA EASE'96																							
1 1																							
1996 07 14 1996 09 14																							
0																							
Time in hours and minutes GMT																							
3																							
1.0 1.0 1																							
999 999 999																							
Zenith Angle (degrees)																							
J(O1D)/s-1																							
Error Flag																							
3																							
V1.0 Currently calibrated to 350DU overhead ozone			
Error flags as per data protocol			
Unfiltered data			
5			
THIS-FILE-NAME=mh960714.jo1			
THIS-FILE-VERSION=1			
THIS-FILE-ENDS=1996 07 14			
E-MAIL-CONTACT=psm7@le.ac.uk			
Time	Zenith Angle	J(O1D)	Error
0	104.3922	999	4
1	104.4194	999	4
2	104.4461	999	4
3	104.4721	999	4
4	104.4976	999	4
5	104.5224	999	4
6	104.5466	999	4
7	104.5702	999	4
8	104.5931	999	4
9	104.6155	999	4
10	104.6372	999	4
11	104.6584	999	4
12	104.6789	999	4
13	104.6988	999	4
14	104.718	999	4
15	104.7367	999	4
16	104.7547	999	4
17	104.7721	999	4
18	104.7889	999	4
19	104.8051	999	4
20	104.8207	999	4
21	104.8356	999	4
22	104.8499	999	4
23	104.8636	999	4
24	104.8766	999	4
25	104.8891	999	4
26	104.9009	999	4
27	104.9121	999	4
28	104.9226	999	4
29	104.9326	999	4
30	104.9419	999	4
31	104.9506	999	4
32	104.9587	999	4
33	104.9661	999	4
34	104.9729	999	4
35	104.9791	999	4
36	104.9847	999	4
37	104.9896	999	4
38	104.9939	999	4
39	104.9976	999	4
40	105.0007	999	4
41	105.0031	999	4
42	105.0049	999	4
43	105.0061	999	4
44	105.0066	999	4
45	105.0066	999	4
46	105.0059	999	4
47	105.0045	999	4
48	105.0026	999	4
49	105	999	4
50	104.9968	999	4
51	104.9929	999	4
52	104.9885	999	4
53	104.9834	999	4
54	104.9777	999	4
55	104.9713	999	4
56	104.9644	999	4
57	104.9568	999	4
58	104.9486	999	4
59	104.9397	999	4
100	104.9302	999	4
101	104.9201	999	4
102	104.9094	999	4
103	104.8981	999	4
104	104.8861	999	4
105	104.8735	999	4
106	104.8603	999	4
107	104.8465	999	4
108	104.832	999	4
109	104.8169	999	4
110	104.8012	999	4
111	104.7849	999	4
112	104.768	999	4
113	104.7504	999	4
114	104.7322	999	4
115	104.7134	999	4
116	104.694	999	4
117	104.674	999	4
118	104.6533	999	4
119	104.632	999	4
120	104.6101	999	4
121	104.5876	999	4
122	104.5645	999	4
123	104.5408	999	4
124	104.5164	999	4
125	104.4915	999	4
126	104.4659	999	4
127	104.4397	999	4
128	104.4129	999	4
129	104.3855	999	4
130	104.3575	999	4
131	104.3288	999	4
132	104.2996	999	4
133	104.2698	999	4
134	104.2393	999	4
135	104.2082	999	4
136	104.1766	999	4
137	104.1443	999	4
138	104.1114	999	4
139	104.078	999	4
140	104.0439	999	4
141	104.0092	999	4
142	103.9739	999	4
143	103.9381	999	4
144	103.9016	999	4
145	103.8645	999	4
146	103.8269	999	4
147	103.7886	999	4
148	103.7497	999	4
149	103.7103	999	4
150	103.6703	999	4
151	103.6296	999	4
152	103.5884	999	4
153	103.5466	999	4
154	103.5042	999	4
155	103.4612	999	4
156	103.4177	999	4
157	103.3735	999	4
158	103.3288	999	4
159	103.2835	999	4
200	103.2376	999	4
201	103.1911	999	4
202	103.144	999	4
203	103.0964	999	4
204	103.0482	999	4
205	102.9994	999	4
206	102.95	999	4
207	102.9001	999	4
208	102.8496	999	4
209	102.7985	999	4
210	102.7469	999	4
211	102.6947	999	4
212	102.6419	999	4
213	102.5886	999	4
214	102.5347	999	4
215	102.4802	999	4
216	102.4252	999	4
217	102.3696	999	4
218	102.3135	999	4
219	102.2568	999	4
220	102.1995	999	4
221	102.1417	999	4
222	102.0833	999	4
223	102.0244	999	4
224	101.965	999	4
225	101.905	999	4
226	101.8444	999	4
227	101.7833	999	4
228	101.7217	999	4
229	101.6595	999	4
230	101.5967	999	4
231	101.5335	999	4
232	101.4697	999	4
233	101.4053	999	4
234	101.3405	999	4
235	101.275	999	4
236	101.2091	999	4
237	101.1426	999	4
238	101.0756	999	4
239	101.0081	999	4
240	100.9401	999	4
241	100.8715	999	4
242	100.8024	999	4
243	100.7328	999	4
244	100.6626	999	4
245	100.592	999	4
246	100.5208	999	4
247	100.4491	999	4
248	100.3769	999	4
249	100.3042	999	4
250	100.231	999	4
251	100.1572	999	4
252	100.083	999	4
253	100.0082	999	4
254	99.93299	999	4
255	99.85725	999	4
256	99.781	999	4
257	99.70425	999	4
258	99.62701	999	4
259	99.54927	999	4
300	99.47104	999	4
301	99.39232	999	4
302	99.31311	999	4
303	99.23341	999	4
304	99.15322	999	4
305	99.07255	999	4
306	98.9914	999	4
307	98.90976	999	4
308	98.82765	999	4
309	98.74506	999	4
310	98.66199	999	4
311	98.57844	999	4
312	98.49443	999	4
313	98.40994	999	4
314	98.32498	999	4
315	98.23956	999	4
316	98.15367	999	4
317	98.06731	999	4
318	97.9805	999	4
319	97.89322	999	4
320	97.80549	999	4
321	97.71729	999	4
322	97.62864	999	4
323	97.53954	999	4
324	97.44999	999	4
325	97.35998	999	4
326	97.26953	999	4
327	97.17863	999	4
328	97.08729	999	4
329	96.99551	999	4
330	96.90328	999	4
331	96.81061	999	4
332	96.71751	999	4
333	96.62397	999	4
334	96.52999	999	4
335	96.43559	999	4
336	96.34075	999	4
337	96.24548	999	4
338	96.14979	999	4
339	96.05367	999	4
340	95.95713	999	4
341	95.86017	999	4
342	95.76279	999	4
343	95.66499	999	4
344	95.56677	999	4
345	95.46814	999	4
346	95.3691	999	4
347	95.26964	999	4
348	95.16978	999	4
349	95.06951	999	4
350	94.96883	999	4
351	94.86775	999	4
352	94.76627	999	4
353	94.66439	999	4
354	94.56211	999	4
355	94.45943	999	4
356	94.35636	999	4
357	94.2529	999	4
358	94.14904	999	4
359	94.0448	999	4
400	93.94017	999	4
401	93.83515	999	4
402	93.72975	999	4
403	93.62397	999	4
404	93.5178	999	4
405	93.41126	999	4
406	93.30434	999	4
407	93.19705	999	4
408	93.08938	999	4
409	92.98134	999	4
410	92.87293	999	4
411	92.76415	999	4
412	92.65501	999	4
413	92.54551	999	4
414	92.43564	999	4
415	92.32541	999	4
416	92.21482	999	4
417	92.10387	999	4
418	91.99257	999	4
419	91.88092	999	4
420	91.76891	999	4
421	91.65655	999	4
422	91.54385	999	4
423	91.43079	999	4
424	91.3174	999	4
425	91.20366	999	4
426	91.08958	999	4
427	90.97516	999	4
428	90.8604	999	4
429	90.7453	999	4
430	90.62988	999	4
431	90.51411	999	4
432	90.39802	999	4
433	90.2816	999	4
434	90.16485	999	4
435	90.04778	999	4
436	89.93038	999	4
437	89.81266	999	4
438	89.69463	999	4
439	89.57627	999	4
440	89.45759	999	4
441	89.3386	999	4
442	89.2193	999	4
443	89.09969	999	4
444	88.97976	999	4
445	88.85953	999	4
446	88.73899	999	4
447	88.61815	999	4
448	88.497	999	4
449	88.37555	999	4
450	88.2538	999	4
451	88.13176	999	4
452	88.00942	999	4
453	87.88678	999	4
454	87.76385	999	4
455	87.64063	999	4
456	87.51713	999	4
457	87.39333	999	4
458	87.26925	999	4
459	87.14488	999	4
500	87.02023	999	4
501	86.8953	999	4
502	86.77009	999	4
503	86.64461	999	4
504	86.51884	999	4
505	86.39281	999	4
506	86.2665	999	4
507	86.13992	999	4
508	86.01307	999	4
509	85.88595	999	4
510	85.75857	999	4
511	85.63093	999	4
512	85.50302	999	4
513	85.37485	999	4
514	85.24642	999	4
515	85.11774	999	4
516	84.98879	999	4
517	84.8596	999	4
518	84.73015	999	4
519	84.60045	999	4
520	84.47051	999	4
521	84.34031	999	4
522	84.20987	999	4
523	84.07918	999	4
524	83.94826	999	4
525	83.81709	999	4
526	83.68568	999	4
527	83.55403	999	4
528	83.42215	999	4
529	83.29003	999	4
530	83.15768	999	4
531	83.0251	999	4
532	82.89229	999	4
533	82.75926	999	4
534	82.62599	999	4
535	82.4925	999	4
536	82.35879	999	4
537	82.22486	999	4
538	82.0907	999	4
539	81.95633	999	4
540	81.82174	999	4
541	81.68694	999	4
542	81.55192	999	4
543	81.41669	999	4
544	81.28125	999	4
545	81.1456	999	4
546	81.00975	999	4
547	80.87369	999	4
548	80.73742	999	4
549	80.60096	999	4
550	80.46429	999	4
551	80.32742	999	4
552	80.19036	999	4
553	80.0531	999	4
554	79.91564	999	4
555	79.77799	999	4
556	79.64015	999	4
557	79.50213	999	4
558	79.36391	999	4
559	79.22551	999	4
600	79.08692	999	4
601	78.94815	999	4
602	78.80919	999	4
603	78.67006	999	4
604	78.53075	999	4
605	78.39126	999	4
606	78.25159	999	4
607	78.11175	999	4
608	77.97174	999	4
609	77.83156	999	4
610	77.69121	999	4
611	77.55069	999	4
612	77.41	999	4
613	77.26915	999	4
614	77.12814	999	4
615	76.98697	999	4
616	76.84563	999	4
617	76.70414	999	4
618	76.56249	999	4
619	76.42069	999	4
620	76.27873	999	4
621	76.13662	999	4
622	75.99436	999	4
623	75.85194	999	4
624	75.70939	999	4
625	75.56668	999	4
626	75.42384	999	4
627	75.28084	999	4
628	75.13771	999	4
629	74.99444	999	4
630	74.85103	999	4
631	74.70748	999	4
632	74.5638	999	4
633	74.41999	999	4
634	74.27604	999	4
635	74.13196	999	4
636	73.98776	999	4
637	73.84342	999	4
638	73.69896	999	4
639	73.55438	999	4
640	73.40967	999	4
641	73.26485	999	4
642	73.1199	999	4
643	72.97484	999	4
644	72.82965	999	4
645	72.68436	999	4
646	72.53895	999	4
647	72.39343	999	4
648	72.2478	999	4
649	72.10206	999	4
650	71.95621	999	4
651	71.81026	999	4
652	71.66421	999	4
653	71.51805	999	4
654	71.37179	999	4
655	71.22543	999	4
656	71.07898	999	4
657	70.93243	999	4
658	70.78578	999	4
659	70.63904	999	4
700	70.49221	999	4
701	70.34529	999	4
702	70.19829	999	4
703	70.05119	999	4
704	69.90401	999	4
705	69.75675	999	4
706	69.60941	999	4
707	69.46199	999	4
708	69.31448	999	4
709	69.1669	999	4
710	69.01925	999	4
711	68.87152	999	4
712	68.72372	999	4
713	68.57585	999	4
714	68.42791	999	4
715	68.27991	999	4
716	68.13184	999	4
717	67.9837	999	4
718	67.8355	999	4
719	67.68724	999	4
720	67.53893	999	4
721	67.39055	999	4
722	67.24212	999	4
723	67.09364	999	4
724	66.9451	999	4
725	66.79651	999	4
726	66.64787	999	4
727	66.49919	999	4
728	66.35046	999	4
729	66.20168	999	4
730	66.05287	999	4
731	65.90401	999	4
732	65.75511	999	4
733	65.60618	999	4
734	65.45721	999	4
735	65.30821	999	4
736	65.15917	999	4
737	65.01011	999	4
738	64.86101	999	4
739	64.71189	999	4
740	64.56274	999	4
741	64.41357	999	4
742	64.26438	999	4
743	64.11517	999	4
744	63.96594	999	4
745	63.81669	999	4
746	63.66743	999	4
747	63.51815	999	4
748	63.36887	999	4
749	63.21957	999	4
750	63.07027	999	4
751	62.92096	999	4
752	62.77164	999	4
753	62.62233	999	4
754	62.47301	999	4
755	62.3237	999	4
756	62.17439	999	4
757	62.02508	999	4
758	61.87578	999	4
759	61.72649	999	4
800	61.57721	999	4
801	61.42795	999	4
802	61.27869	999	4
803	61.12946	999	4
804	60.98024	999	4
805	60.83104	999	4
806	60.68187	999	4
807	60.53272	999	4
808	60.38359	999	4
809	60.23449	999	4
810	60.08542	999	4
811	59.93639	999	4
812	59.78739	999	4
813	59.63842	999	4
814	59.48949	999	4
815	59.3406	999	4
816	59.19176	999	4
817	59.04295	999	4
818	58.8942	999	4
819	58.74549	999	4
820	58.59683	999	4
821	58.44822	999	4
822	58.29967	999	4
823	58.15117	999	4
824	58.00273	999	4
825	57.85436	999	4
826	57.70604	999	4
827	57.55779	999	4
828	57.40961	999	4
829	57.26149	999	4
830	57.11345	999	4
831	56.96548	999	4
832	56.81759	999	4
833	56.66977	999	4
834	56.52203	999	4
835	56.37438	999	4
836	56.22681	999	4
837	56.07933	999	4
838	55.93194	999	4
839	55.78463	999	4
840	55.63743	999	4
841	55.49031	999	4
842	55.3433	999	4
843	55.19639	999	4
844	55.04958	999	4
845	54.90288	999	4
846	54.75628	999	4
847	54.60979	999	4
848	54.46342	999	4
849	54.31716	999	4
850	54.17102	999	4
851	54.02501	999	4
852	53.87911	999	4
853	53.73334	999	4
854	53.58769	999	4
855	53.44218	999	4
856	53.2968	999	4
857	53.15156	999	4
858	53.00645	999	4
859	52.86148	999	4
900	52.71666	999	4
901	52.57199	999	4
902	52.42746	999	4
903	52.28308	999	4
904	52.13886	999	4
905	51.9948	999	4
906	51.85089	999	4
907	51.70715	999	4
908	51.56357	999	4
909	51.42016	999	4
910	51.27692	999	4
911	51.13386	999	4
912	50.99097	999	4
913	50.84826	999	4
914	50.70574	999	4
915	50.5634	999	4
916	50.42125	999	4
917	50.27929	999	4
918	50.13752	999	4
919	49.99595	999	4
920	49.85458	999	4
921	49.71342	999	4
922	49.57246	999	4
923	49.43172	999	4
924	49.29118	999	4
925	49.15087	999	4
926	49.01077	999	4
927	48.87089	999	4
928	48.73124	999	4
929	48.59182	999	4
930	48.45263	999	4
931	48.31368	999	4
932	48.17497	999	4
933	48.0365	999	4
934	47.89828	999	4
935	47.7603	999	4
936	47.62258	999	4
937	47.48512	999	4
938	47.34791	999	4
939	47.21097	999	4
940	47.0743	999	4
941	46.9379	999	4
942	46.80177	999	4
943	46.66592	999	4
944	46.53035	999	4
945	46.39507	999	4
946	46.26007	999	4
947	46.12537	999	4
948	45.99097	999	4
949	45.85687	999	4
950	45.72307	999	4
951	45.58958	999	4
952	45.4564	999	4
953	45.32354	999	4
954	45.191	999	4
955	45.05878	999	4
956	44.92689	999	4
957	44.79534	999	4
958	44.66412	999	4
959	44.53324	999	4
1000	44.40271	999	4
1001	44.27253	999	4
1002	44.1427	999	4
1003	44.01323	999	4
1004	43.88412	999	4
1005	43.75537	999	4
1006	43.627	999	4
1007	43.49901	999	4
1008	43.37139	999	4
1009	43.24416	999	4
1010	43.11731	999	4
1011	42.99086	999	4
1012	42.86481	999	4
1013	42.73916	999	4
1014	42.61392	999	4
1015	42.48909	999	4
1016	42.36467	999	4
1017	42.24068	999	4
1018	42.11712	999	4
1019	41.99398	999	4
1020	41.87128	999	4
1021	41.74902	999	4
1022	41.62721	999	4
1023	41.50585	999	4
1024	41.38495	999	4
1025	41.2645	999	4
1026	41.14452	999	4
1027	41.02502	999	4
1028	40.90599	999	4
1029	40.78744	999	4
1030	40.66937	999	4
1031	40.5518	999	4
1032	40.43473	999	4
1033	40.31816	999	4
1034	40.20209	999	4
1035	40.08654	999	4
1036	39.97151	999	4
1037	39.85701	999	4
1038	39.74303	999	4
1039	39.62959	999	4
1040	39.51669	999	4
1041	39.40433	999	4
1042	39.29253	999	4
1043	39.18128	999	4
1044	39.0706	999	4
1045	38.96049	999	4
1046	38.85095	999	4
1047	38.742	999	4
1048	38.63362	999	4
1049	38.52585	999	4
1050	38.41867	999	4
1051	38.31209	999	4
1052	38.20613	999	4
1053	38.10078	999	4
1054	37.99605	999	4
1055	37.89195	999	4
1056	37.78849	999	4
1057	37.68566	999	4
1058	37.58348	999	4
1059	37.48196	999	4
1100	37.38109	999	4
1101	37.28089	999	4
1102	37.18135	999	4
1103	37.0825	999	4
1104	36.98433	999	4
1105	36.88685	999	4
1106	36.79006	999	4
1107	36.69398	999	4
1108	36.5986	999	4
1109	36.50394	999	4
1110	36.41	999	4
1111	36.31679	999	4
1112	36.22431	999	4
1113	36.13258	999	4
1114	36.04159	999	4
1115	35.95135	999	4
1116	35.86187	999	4
1117	35.77316	999	4
1118	35.68522	999	4
1119	35.59806	999	4
1120	35.51169	999	4
1121	35.4261	999	4
1122	35.34132	999	4
1123	35.25734	999	4
1124	35.17417	999	4
1125	35.09182	999	4
1126	35.01029	999	4
1127	34.92959	999	4
1128	34.84973	999	4
1129	34.77071	999	4
1130	34.69254	999	4
1131	34.61523	999	4
1132	34.53878	999	4
1133	34.4632	999	4
1134	34.38849	999	4
1135	34.31467	999	4
1136	34.24173	999	4
1137	34.16968	999	4
1138	34.09854	999	4
1139	34.0283	999	4
1140	33.95898	999	4
1141	33.89057	999	4
1142	33.82309	999	4
1143	33.75653	999	4
1144	33.69092	999	4
1145	33.62625	999	4
1146	33.56252	999	4
1147	33.49975	999	4
1148	33.43794	999	4
1149	33.3771	999	4
1150	33.31723	999	4
1151	33.25834	999	4
1152	33.20043	999	4
1153	33.14351	999	4
1154	33.08759	999	4
1155	33.03266	999	4
1156	32.97874	999	4
1157	32.92583	999	4
1158	32.87394	999	4
1159	32.82307	999	4
1200	32.77322	999	4
1201	32.72441	999	4
1202	32.67663	999	4
1203	32.6299	999	4
1204	32.58421	999	4
1205	32.53957	999	4
1206	32.49599	999	4
1207	32.45347	999	4
1208	32.41202	999	4
1209	32.37163	999	4
1210	32.33232	999	4
1211	32.29408	999	4
1212	32.25693	999	4
1213	32.22086	999	4
1214	32.18589	999	4
1215	32.152	999	4
1216	32.11922	999	4
1217	32.08754	999	4
1218	32.05696	999	4
1219	32.02749	999	4
1220	31.99913	999	4
1221	31.97188	999	4
1222	31.94575	999	4
1223	31.92075	999	4
1224	31.89686	999	4
1225	31.8741	999	4
1226	31.85248	999	4
1227	31.83198	999	4
1228	31.81261	999	4
1229	31.79438	999	4
1230	31.77729	999	4
1231	31.76134	999	4
1232	31.74653	999	4
1233	31.73287	999	4
1234	31.72035	999	4
1235	31.70897	999	4
1236	31.69875	999	4
1237	31.68967	999	4
1238	31.68174	999	4
1239	31.67496	999	4
1240	31.66934	999	4
1241	31.66486	999	4
1242	31.66154	999	4
1243	31.65938	999	4
1244	31.65836	999	4
1245	31.6585	999	4
1246	31.65979	999	4
1247	31.66224	999	4
1248	31.66584	999	4
1249	31.67059	999	4
1250	31.6765	999	4
1251	31.68356	999	4
1252	31.69176	999	4
1253	31.70112	999	4
1254	31.71162	999	4
1255	31.72328	999	4
1256	31.73608	999	4
1257	31.75002	999	4
1258	31.76511	999	4
1259	31.78133	999	4
1300	31.7987	999	4
1301	31.8172	999	4
1302	31.83684	999	4
1303	31.85762	999	4
1304	31.87952	999	4
1305	31.90255	999	4
1306	31.92671	999	4
1307	31.95198	999	4
1308	31.97838	999	4
1309	32.0059	999	4
1310	32.03453	999	4
1311	32.06427	999	4
1312	32.09512	999	4
1313	32.12707	999	4
1314	32.16012	999	4
1315	32.19427	999	4
1316	32.22951	999	4
1317	32.26584	999	4
1318	32.30325	999	4
1319	32.34175	999	4
1320	32.38132	999	4
1321	32.42197	999	4
1322	32.46368	999	4
1323	32.50646	999	4
1324	32.5503	999	4
1325	32.59519	999	4
1326	32.64114	999	4
1327	32.68812	999	4
1328	32.73615	999	4
1329	32.78521	999	4
1330	32.83531	999	4
1331	32.88643	999	4
1332	32.93857	999	4
1333	32.99172	999	4
1334	33.04588	999	4
1335	33.10105	999	4
1336	33.15722	999	4
1337	33.21438	999	4
1338	33.27253	999	4
1339	33.33166	999	4
1340	33.39176	999	4
1341	33.45284	999	4
1342	33.51488	999	4
1343	33.57788	999	4
1344	33.64184	999	4
1345	33.70674	999	4
1346	33.77258	999	4
1347	33.83936	999	4
1348	33.90707	999	4
1349	33.9757	999	4
1350	34.04525	999	4
1351	34.11571	999	4
1352	34.18707	999	4
1353	34.25933	999	4
1354	34.33248	999	4
1355	34.40652	999	4
1356	34.48144	999	4
1357	34.55724	999	4
1358	34.6339	999	4
1359	34.71142	999	4
1400	34.78979	999	4
1401	34.86902	999	4
1402	34.94908	999	4
1403	35.02998	999	4
1404	35.11171	999	4
1405	35.19426	999	4
1406	35.27763	999	4
1407	35.3618	999	4
1408	35.44678	999	4
1409	35.53256	999	4
1410	35.61912	999	4
1411	35.70647	999	4
1412	35.7946	999	4
1413	35.8835	999	4
1414	35.97316	999	4
1415	36.06358	999	4
1416	36.15475	999	4
1417	36.24667	999	4
1418	36.33932	999	4
1419	36.43271	999	4
1420	36.52683	999	4
1421	36.62166	999	4
1422	36.71721	999	4
1423	36.81346	999	4
1424	36.91042	999	4
1425	37.00807	999	4
1426	37.1064	999	4
1427	37.20542	999	4
1428	37.30512	999	4
1429	37.40548	999	4
1430	37.50651	999	4
1431	37.6082	999	4
1432	37.71053	999	4
1433	37.81351	999	4
1434	37.91713	999	4
1435	38.02138	999	4
1436	38.12626	999	4
1437	38.23176	999	4
1438	38.33788	999	4
1439	38.4446	999	4
1440	38.55192	999	4
1441	38.65985	999	4
1442	38.76836	999	4
1443	38.87746	3.6E-05	0
1444	38.98713	3.76E-05	0
1445	39.09739	3.67E-05	0
1446	39.2082	3.62E-05	0
1447	39.31958	3.6E-05	0
1448	39.43152	3.58E-05	0
1449	39.54401	3.53E-05	0
1450	39.65704	3.55E-05	0
1451	39.77061	3.65E-05	0
1452	39.88472	4.17E-05	0
1453	39.99936	4.23E-05	0
1454	40.11451	4.23E-05	0
1455	40.23019	4.24E-05	0
1456	40.34637	4.03E-05	0
1457	40.46307	2.72E-05	0
1458	40.58026	2.67E-05	0
1459	40.69795	2.59E-05	0
1500	40.81613	2.67E-05	0
1501	40.9348	2.63E-05	0
1502	41.05395	2.47E-05	0
1503	41.17357	2.44E-05	0
1504	41.29366	2.41E-05	0
1505	41.41422	2.42E-05	0
1506	41.53523	2.39E-05	0
1507	41.65671	2.36E-05	0
1508	41.77863	2.35E-05	0
1509	41.90099	2.32E-05	0
1510	42.0238	2.66E-05	0
1511	42.14704	2.6E-05	0
1512	42.27071	2.21E-05	0
1513	42.3948	2.19E-05	0
1514	42.51932	2.17E-05	0
1515	42.64425	2.23E-05	0
1516	42.76959	2.32E-05	0
1517	42.89534	2.3E-05	0
1518	43.02148	2.24E-05	0
1519	43.14803	2.17E-05	0
1520	43.27497	2.14E-05	0
1521	43.4023	2.09E-05	0
1522	43.53	2.06E-05	0
1523	43.65809	2.02E-05	0
1524	43.78655	1.99E-05	0
1525	43.91539	1.99E-05	0
1526	44.04458	2.12E-05	0
1527	44.17414	2.23E-05	0
1528	44.30406	2.24E-05	0
1529	44.43433	2.19E-05	0
1530	44.56494	2.25E-05	0
1531	44.6959	2.27E-05	0
1532	44.8272	2.28E-05	0
1533	44.95884	2.21E-05	0
1534	45.09081	2.2E-05	0
1535	45.2231	2.23E-05	0
1536	45.35572	2.2E-05	0
1537	45.48866	2.15E-05	0
1538	45.62191	2.13E-05	0
1539	45.75548	2.09E-05	0
1540	45.88935	2.09E-05	0
1541	46.02353	2.05E-05	0
1542	46.158	2.02E-05	0
1543	46.29278	2E-05	0
1544	46.42784	1.98E-05	0
1545	46.56319	1.92E-05	0
1546	46.69883	1.89E-05	0
1547	46.83475	1.85E-05	0
1548	46.97094	1.83E-05	0
1549	47.10741	1.82E-05	0
1550	47.24415	1.81E-05	0
1551	47.38116	1.79E-05	0
1552	47.51842	1.77E-05	0
1553	47.65595	1.76E-05	0
1554	47.79373	1.75E-05	0
1555	47.93177	1.73E-05	0
1556	48.07005	1.72E-05	0
1557	48.20858	1.71E-05	0
1558	48.34735	1.7E-05	0
1559	48.48636	1.69E-05	0
1600	48.6256	1.67E-05	0
1601	48.76508	1.66E-05	0
1602	48.90478	1.65E-05	0
1603	49.04471	1.64E-05	0
1604	49.18487	1.62E-05	0
1605	49.32524	1.61E-05	0
1606	49.46582	1.6E-05	0
1607	49.60662	1.58E-05	0
1608	49.74763	1.57E-05	0
1609	49.88884	1.55E-05	0
1610	50.03026	1.53E-05	0
1611	50.17187	1.51E-05	0
1612	50.31369	1.5E-05	0
1613	50.45569	1.49E-05	0
1614	50.59789	1.47E-05	0
1615	50.74028	1.47E-05	0
1616	50.88285	1.47E-05	0
1617	51.0256	1.46E-05	0
1618	51.16853	1.45E-05	0
1619	51.31164	1.44E-05	0
1620	51.45492	1.42E-05	0
1621	51.59837	1.41E-05	0
1622	51.74198	1.4E-05	0
1623	51.88577	1.38E-05	0
1624	52.02971	1.38E-05	0
1625	52.17381	1.37E-05	0
1626	52.31807	1.35E-05	0
1627	52.46249	1.34E-05	0
1628	52.60705	1.33E-05	0
1629	52.75176	1.32E-05	0
1630	52.89662	1.3E-05	0
1631	53.04162	1.29E-05	0
1632	53.18676	1.28E-05	0
1633	53.33204	1.27E-05	0
1634	53.47745	1.25E-05	0
1635	53.62299	1.24E-05	0
1636	53.76867	1.23E-05	0
1637	53.91447	1.22E-05	0
1638	54.0604	1.21E-05	0
1639	54.20645	1.2E-05	0
1640	54.35261	1.19E-05	0
1641	54.4989	1.17E-05	0
1642	54.6453	1.16E-05	0
1643	54.79181	1.15E-05	0
1644	54.93843	1.14E-05	0
1645	55.08516	1.13E-05	0
1646	55.232	1.12E-05	0
1647	55.37894	1.1E-05	0
1648	55.52597	1.09E-05	0
1649	55.67311	1.09E-05	0
1650	55.82034	1.07E-05	0
1651	55.96766	1.06E-05	0
1652	56.11508	1.05E-05	0
1653	56.26258	1.04E-05	0
1654	56.41017	1.04E-05	0
1655	56.55785	1.02E-05	0
1656	56.7056	1.01E-05	0
1657	56.85344	1E-05	0
1658	57.00135	9.92E-06	0
1659	57.14934	9.82E-06	0
1700	57.2974	9.72E-06	0
1701	57.44553	9.61E-06	0
1702	57.59373	9.47E-06	0
1703	57.742	9.36E-06	0
1704	57.89033	9.26E-06	0
1705	58.03872	9.13E-06	0
1706	58.18717	9.04E-06	0
1707	58.33568	8.93E-06	0
1708	58.48425	8.85E-06	0
1709	58.63287	8.73E-06	0
1710	58.78154	8.65E-06	0
1711	58.93026	8.54E-06	0
1712	59.07903	8.43E-06	0
1713	59.22784	8.36E-06	0
1714	59.3767	8.24E-06	0
1715	59.5256	8.15E-06	0
1716	59.67453	8.03E-06	0
1717	59.82351	7.92E-06	0
1718	59.97252	7.83E-06	0
1719	60.12156	7.71E-06	0
1720	60.27064	7.61E-06	0
1721	60.41974	7.52E-06	0
1722	60.56888	7.42E-06	0
1723	60.71803	7.32E-06	0
1724	60.86721	7.23E-06	0
1725	61.01642	7.14E-06	0
1726	61.16564	7.01E-06	0
1727	61.31488	6.89E-06	0
1728	61.46414	6.79E-06	0
1729	61.61341	6.69E-06	0
1730	61.76269	6.61E-06	0
1731	61.91198	6.5E-06	0
1732	62.06128	6.42E-06	0
1733	62.21059	6.32E-06	0
1734	62.3599	6.23E-06	0
1735	62.50922	6.14E-06	0
1736	62.65853	6.04E-06	0
1737	62.80785	5.97E-06	0
1738	62.95716	5.88E-06	0
1739	63.10647	5.8E-06	0
1740	63.25577	5.71E-06	0
1741	63.40506	5.63E-06	0
1742	63.55435	5.56E-06	0
1743	63.70362	5.45E-06	0
1744	63.85288	5.36E-06	0
1745	64.00212	5.29E-06	0
1746	64.15135	5.22E-06	0
1747	64.30055	5.14E-06	0
1748	64.44974	5.05E-06	0
1749	64.59891	4.99E-06	0
1750	64.74805	4.92E-06	0
1751	64.89716	4.83E-06	0
1752	65.04625	4.76E-06	0
1753	65.19531	4.67E-06	0
1754	65.34434	4.62E-06	0
1755	65.49333	4.54E-06	0
1756	65.64229	4.45E-06	0
1757	65.79122	4.39E-06	0
1758	65.94011	4.32E-06	0
1759	66.08895	4.25E-06	0
1800	66.23776	4.17E-06	0
1801	66.38652	4.1E-06	0
1802	66.53524	4.03E-06	0
1803	66.68392	3.97E-06	0
1804	66.83254	3.9E-06	0
1805	66.98112	3.84E-06	0
1806	67.12964	3.77E-06	0
1807	67.27811	3.7E-06	0
1808	67.42653	3.63E-06	0
1809	67.57489	3.57E-06	0
1810	67.72319	3.51E-06	0
1811	67.87144	3.46E-06	0
1812	68.01962	3.39E-06	0
1813	68.16774	3.34E-06	0
1814	68.3158	3.28E-06	0
1815	68.46379	3.21E-06	0
1816	68.61171	3.15E-06	0
1817	68.75956	3.1E-06	0
1818	68.90735	3.04E-06	0
1819	69.05506	2.98E-06	0
1820	69.20269	2.92E-06	0
1821	69.35025	2.86E-06	0
1822	69.49774	2.81E-06	0
1823	69.64514	2.76E-06	0
1824	69.79246	2.7E-06	0
1825	69.93971	2.64E-06	0
1826	70.08686	2.59E-06	0
1827	70.23394	2.53E-06	0
1828	70.38092	2.48E-06	0
1829	70.52782	2.43E-06	0
1830	70.67463	2.38E-06	0
1831	70.82134	2.33E-06	0
1832	70.96797	2.29E-06	0
1833	71.11449	2.24E-06	0
1834	71.26093	2.2E-06	0
1835	71.40726	2.14E-06	0
1836	71.55349	2.1E-06	0
1837	71.69963	2.07E-06	0
1838	71.84566	2.03E-06	0
1839	71.99158	1.98E-06	0
1840	72.1374	1.94E-06	0
1841	72.28312	1.89E-06	0
1842	72.42872	1.85E-06	0
1843	72.57422	1.8E-06	0
1844	72.7196	1.76E-06	0
1845	72.86487	1.73E-06	0
1846	73.01002	1.69E-06	0
1847	73.15505	1.65E-06	0
1848	73.29997	1.61E-06	0
1849	73.44477	1.58E-06	0
1850	73.58945	1.54E-06	0
1851	73.734	1.51E-06	0
1852	73.87843	1.47E-06	0
1853	74.02273	1.44E-06	0
1854	74.16691	1.4E-06	0
1855	74.31095	1.38E-06	0
1856	74.45487	1.34E-06	0
1857	74.59865	1.31E-06	0
1858	74.7423	1.28E-06	0
1859	74.88581	1.25E-06	0
1900	75.02919	1.22E-06	0
1901	75.17243	1.19E-06	0
1902	75.31553	1.16E-06	0
1903	75.45848	1.13E-06	0
1904	75.6013	1.1E-06	0
1905	75.74396	1.07E-06	0
1906	75.88649	1.05E-06	0
1907	76.02886	1.02E-06	0
1908	76.17109	9.94E-07	0
1909	76.31316	9.74E-07	0
1910	76.45508	9.51E-07	0
1911	76.59685	9.23E-07	0
1912	76.73846	9.03E-07	0
1913	76.87991	8.77E-07	0
1914	77.02121	8.53E-07	0
1915	77.16235	8.31E-07	0
1916	77.30332	8.09E-07	0
1917	77.44413	7.88E-07	0
1918	77.58477	7.65E-07	0
1919	77.72525	7.46E-07	0
1920	77.86556	7.32E-07	0
1921	78.0057	7.12E-07	0
1922	78.14567	6.93E-07	0
1923	78.28547	6.81E-07	0
1924	78.42509	6.61E-07	0
1925	78.56454	6.47E-07	0
1926	78.70381	6.27E-07	0
1927	78.8429	6.11E-07	0
1928	78.98181	5.95E-07	0
1929	79.12054	5.76E-07	0
1930	79.25908	5.63E-07	0
1931	79.39744	5.48E-07	0
1932	79.53561	5.34E-07	0
1933	79.67359	5.18E-07	0
1934	79.81138	5.03E-07	0
1935	79.94899	4.88E-07	0
1936	80.08639	4.75E-07	0
1937	80.22361	4.61E-07	0
1938	80.36062	4.47E-07	0
1939	80.49744	4.37E-07	0
1940	80.63406	4.26E-07	0
1941	80.77048	4.1E-07	0
1942	80.90669	4E-07	0
1943	81.04271	3.82E-07	0
1944	81.17851	3.73E-07	0
1945	81.31411	3.46E-07	0
1946	81.4495	3.41E-07	0
1947	81.58468	3.25E-07	0
1948	81.71964	3.15E-07	0
1949	81.85439	3.22E-07	0
1950	81.98893	3.08E-07	0
1951	82.12325	2.97E-07	0
1952	82.25735	2.87E-07	0
1953	82.39123	2.77E-07	0
1954	82.52489	2.67E-07	0
1955	82.65832	2.57E-07	0
1956	82.79153	2.56E-07	0
1957	82.92452	2.44E-07	0
1958	83.05727	2.35E-07	0
1959	83.18979	2.27E-07	0
2000	83.32209	2.19E-07	0
2001	83.45415	2.11E-07	0
2002	83.58597	2.06E-07	0
2003	83.71756	1.99E-07	0
2004	83.84891	1.95E-07	0
2005	83.98002	1.84E-07	0
2006	84.11089	1.82E-07	0
2007	84.24152	1.81E-07	0
2008	84.3719	1.74E-07	0
2009	84.50203	1.7E-07	0
2010	84.63192	1.64E-07	0
2011	84.76156	1.6E-07	0
2012	84.89095	1.54E-07	0
2013	85.02008	1.44E-07	0
2014	85.14896	1.4E-07	0
2015	85.27758	1.32E-07	0
2016	85.40595	1.27E-07	0
2017	85.53405	1.28E-07	0
2018	85.6619	1.23E-07	0
2019	85.78948	1.2E-07	0
2020	85.9168	1.14E-07	0
2021	86.04385	1.11E-07	0
2022	86.17063	1.07E-07	0
2023	86.29715	9.97E-08	0
2024	86.42339	9.97E-08	0
2025	86.54936	9.33E-08	0
2026	86.67506	8.78E-08	0
2027	86.80048	8.33E-08	0
2028	86.92562	8.05E-08	0
2029	87.05048	8.24E-08	0
2030	87.17506	8.24E-08	0
2031	87.29936	8.15E-08	0
2032	87.42337	7.32E-08	0
2033	87.5471	6.77E-08	0
2034	87.67054	6.87E-08	0
2035	87.79369	6.5E-08	0
2036	87.91654	6.5E-08	0
2037	88.03911	6.23E-08	0
2038	88.16138	5.95E-08	0
2039	88.28335	5.68E-08	0
2040	88.40503	5.49E-08	0
2041	88.5264	5.31E-08	0
2042	88.64747	4.94E-08	0
2043	88.76824	4.67E-08	0
2044	88.88871	4.49E-08	0
2045	89.00887	4.21E-08	0
2046	89.12872	3.84E-08	0
2047	89.24825	3.75E-08	0
2048	89.36748	3.29E-08	0
2049	89.4864	3.11E-08	0
2050	89.60499	2.93E-08	0
2051	89.72327	3.66E-08	0
2052	89.84124	5.96E-08	0
2053	89.95888	5.59E-08	0
2054	90.0762	4.95E-08	0
2055	90.19319	4.77E-08	0
2056	90.30986	4.4E-08	0
2057	90.4262	3.85E-08	0
2058	90.54221	4.03E-08	0
2059	90.65789	4.03E-08	0
2100	90.77324	4.31E-08	0
2101	90.88825	4.49E-08	0
2102	91.00293	4.22E-08	0
2103	91.11727	3.94E-08	0
2104	91.23127	3.94E-08	0
2105	91.34492	3.48E-08	0
2106	91.45824	3.21E-08	0
2107	91.5712	3.02E-08	0
2108	91.68382	2.84E-08	0
2109	91.7961	2.38E-08	0
2110	91.90802	2.38E-08	0
2111	92.01959	2.2E-08	0
2112	92.1308	2.1E-08	0
2113	92.24166	1.92E-08	0
2114	92.35217	1.55E-08	0
2115	92.46231	1.64E-08	0
2116	92.57209	2.01E-08	0
2117	92.68151	1.64E-08	0
2118	92.79056	1.55E-08	0
2119	92.89925	1.37E-08	0
2120	93.00757	1.18E-08	0
2121	93.11552	1.28E-08	0
2122	93.22309	9.06E-09	0
2123	93.3303	9.99E-09	0
2124	93.43713	6.3E-09	0
2125	93.54358	2.61E-09	0
2126	93.64965	5.38E-09	0
2127	93.75534	3.53E-09	0
2128	93.86065	2.61E-09	0
2129	93.96557	6.3E-09	0
2130	94.07011	1.83E-08	0
2131	94.17426	1.83E-08	0
2132	94.27802	1.46E-08	0
2133	94.38139	1.18E-08	0
2134	94.48436	1.28E-08	0
2135	94.58694	1.09E-08	0
2136	94.68913	9.08E-09	0
2137	94.79091	1E-08	0
2138	94.8923	8.15E-09	0
2139	94.99328	1E-08	0
2140	95.09386	1.09E-08	0
2141	95.19403	8.16E-09	0
2142	95.29379	9.08E-09	0
2143	95.39315	5.38E-09	0
2144	95.49209	7.23E-09	0
2145	95.59062	5.39E-09	0
2146	95.68874	5.39E-09	0
2147	95.78644	6.31E-09	0
2148	95.88372	2.61E-09	0
2149	95.98058	1.6E-10	0
2150	96.07702	1.69E-09	0
2151	96.17303	1.69E-09	0
2152	96.26862	3.54E-09	0
2153	96.36378	7.65E-10	0
2154	96.45852	1.09E-09	0
2155	96.55282	7.65E-10	0
2156	96.64669	1.6E-10	0
2157	96.74012	7.65E-10	0
2158	96.83312	1.6E-10	0
2159	96.92568	2.01E-09	0
2200	97.0178	3.86E-09	0
2201	97.10948	7.56E-09	0
2202	97.20071	7.56E-09	0
2203	97.2915	3.86E-09	0
2204	97.38185	5.39E-09	0
2205	97.47174	1.84E-08	0
2206	97.56119	1.37E-08	0
2207	97.65018	1.28E-08	0
2208	97.73872	1.37E-08	0
2209	97.8268	8.17E-09	0
2210	97.91442	9.1E-09	0
2211	98.00159	8.17E-09	0
2212	98.08829	4.47E-09	0
2213	98.17454	2.62E-09	0
2214	98.26031	2.01E-09	0
2215	98.34562	1.09E-09	0
2216	98.43047	2.01E-09	0
2217	98.51484	2.01E-09	0
2218	98.59874	1.69E-09	0
2219	98.68217	1.61E-10	0
2220	98.76513	2.01E-09	0
2221	98.8476	2.01E-09	0
2222	98.9296	5.72E-09	0
2223	99.01112	7.66E-10	0
2224	99.09216	1.61E-10	0
2225	99.17271	4.47E-09	0
2226	99.25278	1.1E-08	0
2227	99.33236	6.33E-09	0
2228	99.41145	7.25E-09	0
2229	99.49006	3.55E-09	0
2230	99.56817	4.47E-09	0
2231	99.64578	8.18E-09	0
2232	99.72291	4.47E-09	0
2233	99.79953	6.33E-09	0
2234	99.87566	5.4E-09	0
2235	99.95128	3.55E-09	0
2236	100.0264	3.55E-09	0
2237	100.101	1.69E-09	0
2238	100.1751	3.55E-09	0
2239	100.2488	2.62E-09	0
2240	100.3219	2.62E-09	0
2241	100.3944	4.48E-09	0
2242	100.4665	7.67E-10	0
2243	100.5381	2.62E-09	0
2244	100.6091	2.62E-09	0
2245	100.6797	1.09E-09	0
2246	100.7497	1.61E-10	0
2247	100.8192	7.67E-10	0
2248	100.8881	7.67E-10	0
2249	100.9566	7.67E-10	0
2250	101.0245	2.02E-09	0
2251	101.0919	1.09E-09	0
2252	101.1588	1.09E-09	0
2253	101.2251	1.61E-10	0
2254	101.291	1.61E-10	0
2255	101.3562	2.02E-09	0
2256	101.421	1.61E-10	0
2257	101.4852	7.67E-10	0
2258	101.5489	1.09E-09	0
2259	101.612	2.02E-09	0
2300	101.6746	2.02E-09	0
2301	101.7367	6.66E-09	0
2302	101.7982	7.59E-09	0
2303	101.8591	1.41E-08	0
2304	101.9196	1.32E-08	0
2305	101.9794	9.44E-09	0
2306	102.0388	1.13E-08	0
2307	102.0975	1.04E-08	0
2308	102.1558	1.22E-08	0
2309	102.2134	1.22E-08	0
2310	102.2706	1.22E-08	0
2311	102.3271	1.5E-08	0
2312	102.3831	1.32E-08	0
2313	102.4386	8.52E-09	0
2314	102.4935	1.04E-08	0
2315	102.5478	1.04E-08	0
2316	102.6016	1.13E-08	0
2317	102.6548	1.22E-08	0
2318	102.7074	8.52E-09	0
2319	102.7595	1.32E-08	0
2320	102.811	1.59E-08	0
2321	102.8619	6.66E-09	0
2322	102.9123	6.66E-09	0
2323	102.9621	5.73E-09	0
2324	103.0113	4.8E-09	0
2325	103.0599	6.66E-09	0
2326	103.108	4.8E-09	0
2327	103.1555	4.8E-09	0
2328	103.2024	7.59E-09	0
2329	103.2487	3.88E-09	0
2330	103.2945	4.81E-09	0
2331	103.3397	2.95E-09	0
2332	103.3843	2.63E-09	0
2333	103.4283	1.7E-09	0
2334	103.4717	2.63E-09	0
2335	103.5145	7.68E-10	0
2336	103.5568	1.09E-09	0
2337	103.5985	7.68E-10	0
2338	103.6395	7.68E-10	0
2339	103.68	1.09E-09	0
2340	103.7199	1.09E-09	0
2341	103.7592	1.09E-09	0
2342	103.7979	2.95E-09	0
2343	103.836	1.09E-09	0
2344	103.8736	2.02E-09	0
2345	103.9105	1.09E-09	0
2346	103.9468	2.02E-09	0
2347	103.9825	2.95E-09	0
2348	104.0177	2.02E-09	0
2349	104.0522	1.09E-09	0
2350	104.0861	5.74E-09	0
2351	104.1195	4.81E-09	0
2352	104.1522	2.95E-09	0
2353	104.1843	2.95E-09	0
2354	104.2158	2.02E-09	0
2355	104.2467	1.09E-09	0
2356	104.277	5.74E-09	0
2357	104.3067	3.88E-09	0
2358	104.3358	1.61E-10	0
2359	104.3643	2.95E-09	0
