24 1001
Beverley Allan and Hugh Coe
 University of East Anglia, Norwich, UK 
 Differential Optical Absorption Spectrometer, Mace Head, Eire 
ACSOE OXICOA EASE'96
1 1
1996 08 04  1997 01 29
0
Time in fractional Julian Day
3
1.0 1.0 1
999 999 999
FORMALDEHYDE (pptv)
ERROR FROM ANALYSIS (pptv)
ERROR FLAG
2
Missing data markers represent poor raw data / hardware problems.   
Detection limit for HCHO is 145 ppt determined from the analysis.   
5   
THIS-FILE-NAME=mh960804.fm2   
THIS-FILE-VERSION=1   
THIS-FILE-ENDS=1996 08 04   
E-MAIL-CONTACT=b.allan@uea.ac.uk   
Jday HCHO Analysis Error Error Flag
217.3813	748.33	330.65	1
217.3882	1209.81	306	1
217.3952	836.05	273.45	1
217.4021	360.14	267.33	1
217.4091	540.24	277.28	1
217.416	505.99	276.75	1
217.4229	538.89	279.34	1
217.4299	643.93	280.51	1
217.4368	753.78	283.56	1
217.4438	512.55	283.82	1
217.4507	463.42	281.49	1
217.4577	345.49	282.49	1
217.4646	479.4	278.52	1
217.4716	427.11	284.18	1
217.4785	362.39	280.3	1
217.4854	390.61	279.74	1
217.4924	464.77	280.19	1
217.4993	539.69	285.43	1
217.5063	456.52	286.89	1
217.5132	510.95	286.35	1
217.5202	515.68	282.29	1
217.5271	646.83	288.4	1
217.5341	749.5	287.02	1
217.541	430.5	276.26	1
217.5479	204.03	283.98	1
217.5549	-4.7	284.53	1
217.5618	-42.54	279.77	1
217.5688	-101.64	283.02	1
217.5757	-77.39	282.28	1
217.5827	111.55	282.01	1
217.5896	52.46	284.74	1
217.5966	-3.2	285.91	1
217.6035	221.01	283.77	1
217.6104	244.6	281.45	1
217.6174	422.78	283.11	1
217.6243	282.88	284.39	1
217.6313	169.94	283.11	1
217.6382	-111.48	277.8	1
217.6452	177.68	280.52	1
217.6521	245.8	279.73	1
217.6591	216.01	276.14	1
217.666	24.16	274.63	1
217.6729	248.44	277.4	1
217.6799	157.75	277.17	1
217.6868	113.22	276.44	1
217.6938	175.06	280.7	1
