25 1001                       
Paul S. Monks                       
"Dept. of Chemistry, University of Leicester, UK"                       
J(O1D) data                       
ACSOE OXICOA EASE'96                       
1 1                       
1996 08 03 1996 12 12                       
0                       
Minutes since midnight /GMT                       
3                       
1.0 1.0 1                       
999 999 999                       
Zenith Angle (degrees)                       
J(O1D)/s-1                       
Error Flag                       
3                       
V1.0 Currently calibrated to 350DU overhead ozone   
"Error flags 0 is OK, 1 is missing"   
Unfiltered data   
5   
THIS-FILE-NAME=mh960803.jo1   
THIS-FILE-VERSION=1   
THIS-FILE-ENDS=1996 08 03   
E-MAIL-CONTACT=psm7@le.ac.uk   
Time Zenith Angle J(O1D) Error
0 108.5532 9.45E-09 0
1 108.5821 8.52E-09 0
2 108.6104 8.52E-09 0
3 108.6381 7.59E-09 0
4 108.6651 3.87E-09 0
5 108.6915 2.00E-09 0
6 108.7172 1.43E-10 0
7 108.7423 2.94E-09 0
8 108.7668 2.00E-09 0
9 108.7906 1.07E-09 0
10 108.8138 3.87E-09 0
11 108.8363 2.00E-09 0
12 108.8581 2.94E-09 0
13 108.8794 2.00E-09 0
14 108.9 1.07E-09 0
15 108.9199 3.87E-09 0
16 108.9392 1.07E-09 0
17 108.9578 2.94E-09 0
18 108.9758 1.43E-10 0
19 108.9931 2.94E-09 0
20 109.0098 2.94E-09 0
21 109.0258 1.43E-10 0
22 109.0412 2.94E-09 0
23 109.0559 2.00E-09 0
24 109.07 2.00E-09 0
25 109.0834 2.94E-09 0
26 109.0962 2.00E-09 0
27 109.1083 3.87E-09 0
28 109.1197 1.43E-10 0
29 109.1305 2.94E-09 0
30 109.1406 1.07E-09 0
31 109.1501 2.00E-09 0
32 109.159 2.94E-09 0
33 109.1671 1.07E-09 0
34 109.1746 2.94E-09 0
35 109.1815 1.07E-09 0
36 109.1877 2.00E-09 0
37 109.1933 2.94E-09 0
38 109.1981 1.07E-09 0
39 109.2024 4.80E-09 0
40 109.2059 2.94E-09 0
41 109.2089 3.87E-09 0
42 109.2111 2.94E-09 0
43 109.2127 3.87E-09 0
44 109.2136 3.87E-09 0
45 109.2139 2.00E-09 0
46 109.2135 3.87E-09 0
47 109.2125 1.07E-09 0
48 109.2108 1.07E-09 0
49 109.2085 2.00E-09 0
50 109.2055 1.43E-10 0
51 109.2018 2.00E-09 0
52 109.1975 1.07E-09 0
53 109.1925 2.00E-09 0
54 109.1868 2.00E-09 0
55 109.1805 1.43E-10 0
56 109.1736 2.94E-09 0
57 109.166 1.43E-10 0
58 109.1577 1.07E-09 0
59 109.1488 2.94E-09 0
60 109.1392 2.94E-09 0
61 109.129 2.94E-09 0
62 109.1181 2.00E-09 0
63 109.1065 3.87E-09 0
64 109.0943 2.00E-09 0
65 109.0815 2.00E-09 0
66 109.0679 2.94E-09 0
67 109.0538 2.00E-09 0
68 109.039 3.87E-09 0
69 109.0235 2.94E-09 0
70 109.0074 2.00E-09 0
71 108.9906 2.00E-09 0
72 108.9732 2.00E-09 0
73 108.9551 4.80E-09 0
74 108.9364 3.87E-09 0
75 108.917 2.94E-09 0
76 108.897 2.94E-09 0
77 108.8763 1.07E-09 0
78 108.855 3.87E-09 0
79 108.833 2.00E-09 0
80 108.8104 2.94E-09 0
81 108.7871 6.66E-09 0
82 108.7632 9.45E-09 0
83 108.7387 9.45E-09 0
84 108.7135 6.66E-09 0
85 108.6876 9.45E-09 0
86 108.6612 7.59E-09 0
87 108.634 7.59E-09 0
88 108.6063 6.66E-09 0
89 108.5779 4.80E-09 0
90 108.5488 7.59E-09 0
91 108.5192 7.59E-09 0
92 108.4889 6.66E-09 0
93 108.4579 8.52E-09 0
94 108.4263 6.66E-09 0
95 108.3941 9.45E-09 0
96 108.3612 6.66E-09 0
97 108.3278 8.52E-09 0
98 108.2936 7.59E-09 0
99 108.2589 7.59E-09 0
100 108.2235 8.52E-09 0
101 108.1875 6.66E-09 0
102 108.1509 7.59E-09 0
103 108.1136 6.66E-09 0
104 108.0758 6.66E-09 0
105 108.0372 8.52E-09 0
106 107.9981 8.52E-09 0
107 107.9584 8.52E-09 0
108 107.918 6.66E-09 0
109 107.877 6.66E-09 0
110 107.8354 6.66E-09 0
111 107.7932 4.80E-09 0
112 107.7503 6.66E-09 0
113 107.7069 6.66E-09 0
114 107.6628 5.73E-09 0
115 107.6181 6.66E-09 0
116 107.5728 7.59E-09 0
117 107.5269 7.59E-09 0
118 107.4804 6.66E-09 0
119 107.4333 8.52E-09 0
120 107.3856 7.59E-09 0
121 107.3373 5.73E-09 0
122 107.2884 4.79E-09 0
123 107.2388 2.00E-09 0
124 107.1887 3.86E-09 0
125 107.138 2.00E-09 0
126 107.0866 3.86E-09 0
127 107.0347 3.86E-09 0
128 106.9822 2.00E-09 0
129 106.9291 2.00E-09 0
130 106.8754 2.93E-09 0
131 106.8211 2.00E-09 0
132 106.7663 3.86E-09 0
133 106.7108 2.00E-09 0
134 106.6547 4.79E-09 0
135 106.5981 3.86E-09 0
136 106.5409 2.93E-09 0
137 106.4831 3.86E-09 0
138 106.4247 2.93E-09 0
139 106.3658 6.65E-09 0
140 106.3063 2.93E-09 0
141 106.2462 4.79E-09 0
142 106.1855 2.93E-09 0
143 106.1242 3.86E-09 0
144 106.0624 4.79E-09 0
145 106 2.93E-09 0
146 105.9371 4.79E-09 0
147 105.8736 3.86E-09 0
148 105.8095 5.72E-09 0
149 105.7449 9.44E-09 0
150 105.6797 7.58E-09 0
151 105.6139 8.51E-09 0
152 105.5476 3.86E-09 0
153 105.4807 2.93E-09 0
154 105.4133 4.79E-09 0
155 105.3454 3.86E-09 0
156 105.2768 4.79E-09 0
157 105.2078 2.00E-09 0
158 105.1382 2.93E-09 0
159 105.068 2.93E-09 0
160 104.9973 2.00E-09 0
161 104.9261 4.79E-09 0
162 104.8543 2.93E-09 0
163 104.782 4.79E-09 0
164 104.7091 3.86E-09 0
165 104.6358 2.00E-09 0
166 104.5618 4.79E-09 0
167 104.4874 2.93E-09 0
168 104.4124 8.51E-09 0
169 104.3369 1.04E-08 0
170 104.2609 4.79E-09 0
171 104.1844 5.72E-09 0
172 104.1073 3.86E-09 0
173 104.0297 5.72E-09 0
174 103.9516 4.79E-09 0
175 103.873 5.72E-09 0
176 103.7939 6.65E-09 0
177 103.7143 4.79E-09 0
178 103.6341 9.43E-09 0
179 103.5535 5.72E-09 0
180 103.4723 5.72E-09 0
181 103.3906 5.72E-09 0
182 103.3085 5.72E-09 0
183 103.2258 6.64E-09 0
184 103.1426 4.79E-09 0
185 103.059 5.71E-09 0
186 102.9748 4.79E-09 0
187 102.8902 4.79E-09 0
188 102.805 6.64E-09 0
189 102.7194 4.79E-09 0
190 102.6333 6.64E-09 0
191 102.5467 3.86E-09 0
192 102.4596 4.78E-09 0
193 102.3721 6.64E-09 0
194 102.2841 4.78E-09 0
195 102.1955 6.64E-09 0
196 102.1066 4.78E-09 0
197 102.0171 5.71E-09 0
198 101.9272 7.57E-09 0
199 101.8368 5.71E-09 0
200 101.7459 8.49E-09 0
201 101.6546 6.64E-09 0
202 101.5628 7.57E-09 0
203 101.4705 7.57E-09 0
204 101.3778 7.57E-09 0
205 101.2847 8.49E-09 0
206 101.191 6.64E-09 0
207 101.097 8.49E-09 0
208 101.0024 6.64E-09 0
209 100.9074 7.56E-09 0
210 100.812 1.03E-08 0
211 100.7162 6.63E-09 0
212 100.6198 1.03E-08 0
213 100.5231 8.49E-09 0
214 100.4259 8.49E-09 0
215 100.3283 9.42E-09 0
216 100.2302 7.56E-09 0
217 100.1317 8.49E-09 0
218 100.0328 7.56E-09 0
219 99.93341 6.63E-09 0
220 99.83363 8.49E-09 0
221 99.73342 7.56E-09 0
222 99.63278 9.41E-09 0
223 99.53173 8.48E-09 0
224 99.43025 9.41E-09 0
225 99.32836 1.03E-08 0
226 99.22605 8.48E-09 0
227 99.12333 1.13E-08 0
228 99.0202 1.03E-08 0
229 98.91666 1.03E-08 0
230 98.81271 1.03E-08 0
231 98.70835 8.48E-09 0
232 98.6036 9.40E-09 0
233 98.49844 6.63E-09 0
234 98.39288 9.40E-09 0
235 98.28692 8.48E-09 0
236 98.18057 9.40E-09 0
237 98.07382 1.03E-08 0
238 97.96669 5.70E-09 0
239 97.85916 7.55E-09 0
240 97.75125 7.55E-09 0
241 97.64295 9.40E-09 0
242 97.53426 8.47E-09 0
243 97.4252 8.47E-09 0
244 97.31575 1.03E-08 0
245 97.20593 6.62E-09 0
246 97.09573 8.47E-09 0
247 96.98516 9.39E-09 0
248 96.87422 8.47E-09 0
249 96.7629 9.39E-09 0
250 96.65122 4.77E-09 0
251 96.53917 7.54E-09 0
252 96.42676 8.47E-09 0
253 96.31399 6.62E-09 0
254 96.20085 4.77E-09 0
255 96.08736 5.69E-09 0
256 95.97351 1.12E-08 0
257 95.85931 6.61E-09 0
258 95.74475 4.76E-09 0
259 95.62984 7.54E-09 0
260 95.51459 4.76E-09 0
261 95.39899 7.53E-09 0
262 95.28304 6.61E-09 0
263 95.16675 5.69E-09 0
264 95.05012 5.68E-09 0
265 94.93316 3.84E-09 0
266 94.81585 7.53E-09 0
267 94.69821 6.61E-09 0
268 94.58024 7.53E-09 0
269 94.46193 7.53E-09 0
270 94.3433 6.61E-09 0
271 94.22434 8.45E-09 0
272 94.10505 6.60E-09 0
273 93.98544 7.53E-09 0
274 93.86551 8.45E-09 0
275 93.74526 7.52E-09 0
276 93.62469 8.45E-09 0
277 93.5038 5.68E-09 0
278 93.3826 6.60E-09 0
279 93.26109 6.60E-09 0
280 93.13926 3.83E-09 0
281 93.01713 7.52E-09 0
282 92.8947 4.75E-09 0
283 92.77195 5.67E-09 0
284 92.64891 4.75E-09 0
285 92.52556 3.83E-09 0
286 92.40192 4.75E-09 0
287 92.27797 1.98E-09 0
288 92.15373 5.67E-09 0
289 92.0292 1.98E-09 0
290 91.90438 1.06E-09 0
291 91.77927 2.91E-09 0
292 91.65386 1.70E-09 0
293 91.52818 1.41E-10 0
294 91.40221 1.70E-09 0
295 91.27595 1.70E-09 0
296 91.14942 2.62E-09 0
297 91.0226 4.46E-09 0
298 90.89551 3.54E-09 0
299 90.76815 6.30E-09 0
300 90.64051 8.14E-09 0
301 90.51259 6.30E-09 0
302 90.38441 9.98E-09 0
303 90.25597 8.14E-09 0
304 90.12725 1.18E-08 0
305 89.99827 1.18E-08 0
306 89.86903 1.27E-08 0
307 89.73953 1.46E-08 0
308 89.60977 1.46E-08 0
309 89.47975 1.92E-08 0
310 89.34948 1.82E-08 0
311 89.21895 2.10E-08 0
312 89.08817 2.28E-08 0
313 88.95714 2.28E-08 0
314 88.82587 2.56E-08 0
315 88.69434 2.65E-08 0
316 88.56257 2.74E-08 0
317 88.43056 2.83E-08 0
318 88.29831 2.74E-08 0
319 88.16582 2.83E-08 0
320 88.03309 3.02E-08 0
321 87.90013 3.29E-08 0
322 87.76693 3.56E-08 0
323 87.6335 3.93E-08 0
324 87.49984 4.48E-08 0
325 87.36595 4.66E-08 0
326 87.23183 5.12E-08 0
327 87.09749 5.40E-08 0
328 86.96293 5.40E-08 0
329 86.82814 5.76E-08 0
330 86.69313 5.94E-08 0
331 86.5579 6.49E-08 0
332 86.42246 6.68E-08 0
333 86.28681 6.95E-08 0
334 86.15093 7.50E-08 0
335 86.01485 7.50E-08 0
336 85.87856 8.05E-08 0
337 85.74206 8.23E-08 0
338 85.60536 8.68E-08 0
339 85.46845 9.14E-08 0
340 85.33133 9.50E-08 0
341 85.19402 1.02E-07 0
342 85.0565 1.05E-07 0
343 84.91879 1.11E-07 0
344 84.78089 1.18E-07 0
345 84.64278 1.21E-07 0
346 84.50449 1.27E-07 0
347 84.366 1.27E-07 0
348 84.22733 1.35E-07 0
349 84.08847 1.41E-07 0
350 83.94942 1.44E-07 0
351 83.81019 1.53E-07 0
352 83.67077 1.57E-07 0
353 83.53118 1.65E-07 0
354 83.3914 1.71E-07 0
355 83.25145 1.76E-07 0
356 83.11132 1.82E-07 0
357 82.97102 1.85E-07 0
358 82.83055 1.95E-07 0
359 82.6899 2.01E-07 0
360 82.54909 2.08E-07 0
361 82.40811 2.15E-07 0
362 82.26696 2.22E-07 0
363 82.12565 2.29E-07 0
364 81.98417 2.35E-07 0
365 81.84254 2.42E-07 0
366 81.70075 2.50E-07 0
367 81.5588 2.58E-07 0
368 81.41669 2.69E-07 0
369 81.27443 2.75E-07 0
370 81.13201 2.88E-07 0
371 80.98945 2.96E-07 0
372 80.84674 3.04E-07 0
373 80.70388 3.13E-07 0
374 80.56087 3.19E-07 0
375 80.41772 3.33E-07 0
376 80.27443 3.40E-07 0
377 80.13099 3.52E-07 0
378 79.98742 3.64E-07 0
379 79.84371 3.75E-07 0
380 79.69986 3.88E-07 0
381 79.55588 3.99E-07 0
382 79.41177 4.11E-07 0
383 79.26753 4.18E-07 0
384 79.12315 4.30E-07 0
385 78.97865 4.44E-07 0
386 78.83402 4.57E-07 0
387 78.68927 4.70E-07 0
388 78.5444 4.82E-07 0
389 78.3994 4.95E-07 0
390 78.25429 5.11E-07 0
391 78.10905 5.23E-07 0
392 77.9637 5.38E-07 0
393 77.81824 5.53E-07 0
394 77.67266 5.70E-07 0
395 77.52698 5.85E-07 0
396 77.38118 6.03E-07 0
397 77.23527 6.22E-07 0
398 77.08926 6.34E-07 0
399 76.94315 6.52E-07 0
400 76.79693 6.63E-07 0
401 76.65061 6.80E-07 0
402 76.50419 7.01E-07 0
403 76.35767 7.23E-07 0
404 76.21106 7.46E-07 0
405 76.06435 7.61E-07 0
406 75.91755 7.84E-07 0
407 75.77065 8.05E-07 0
408 75.62367 8.25E-07 0
409 75.4766 8.48E-07 0
410 75.32944 8.70E-07 0
411 75.1822 8.97E-07 0
412 75.03487 9.14E-07 0
413 74.88746 9.38E-07 0
414 74.73998 9.67E-07 0
415 74.59241 9.90E-07 0
416 74.44477 1.02E-06 0
417 74.29705 1.04E-06 0
418 74.14927 1.06E-06 0
419 74.0014 1.09E-06 0
420 73.85347 1.11E-06 0
421 73.70547 1.14E-06 0
422 73.55741 1.16E-06 0
423 73.40928 1.19E-06 0
424 73.26109 1.22E-06 0
425 73.11283 1.24E-06 0
426 72.96452 1.26E-06 0
427 72.81615 1.30E-06 0
428 72.66772 1.33E-06 0
429 72.51923 1.36E-06 0
430 72.3707 1.40E-06 0
431 72.22211 1.43E-06 0
432 72.07347 1.47E-06 0
433 71.92479 1.49E-06 0
434 71.77606 1.53E-06 0
435 71.62729 1.56E-06 0
436 71.47847 1.60E-06 0
437 71.32961 1.64E-06 0
438 71.18071 1.68E-06 0
439 71.03178 1.72E-06 0
440 70.88281 1.76E-06 0
441 70.7338 1.80E-06 0
442 70.58476 1.85E-06 0
443 70.4357 1.89E-06 0
444 70.2866 1.93E-06 0
445 70.13748 1.97E-06 0
446 69.98833 2.01E-06 0
447 69.83915 2.05E-06 0
448 69.68996 2.10E-06 0
449 69.54075 2.15E-06 0
450 69.39151 2.19E-06 0
451 69.24227 2.23E-06 0
452 69.093 2.27E-06 0
453 68.94373 2.32E-06 0
454 68.79444 2.36E-06 0
455 68.64514 2.40E-06 0
456 68.49584 2.43E-06 0
457 68.34653 2.46E-06 0
458 68.19721 2.51E-06 0
459 68.0479 2.55E-06 0
460 67.89858 2.60E-06 0
461 67.74927 2.64E-06 0
462 67.59996 2.69E-06 0
463 67.45065 2.74E-06 0
464 67.30135 2.80E-06 0
465 67.15207 2.86E-06 0
466 67.00279 2.93E-06 0
467 66.85352 2.99E-06 0
468 66.70427 3.05E-06 0
469 66.55504 3.12E-06 0
470 66.40582 3.16E-06 0
471 66.25662 3.21E-06 0
472 66.10745 3.27E-06 0
473 65.9583 3.33E-06 0
474 65.80918 3.39E-06 0
475 65.66008 3.45E-06 0
476 65.51102 3.50E-06 0
477 65.36198 3.58E-06 0
478 65.21298 3.63E-06 0
479 65.06402 3.71E-06 0
480 64.91509 3.78E-06 0
481 64.7662 3.85E-06 0
482 64.61736 3.93E-06 0
483 64.46855 4.01E-06 0
484 64.3198 4.06E-06 0
485 64.17109 4.12E-06 0
486 64.02243 4.10E-06 0
487 63.87382 4.15E-06 0
488 63.72527 4.27E-06 0
489 63.57677 4.33E-06 0
490 63.42833 4.45E-06 0
491 63.27995 4.49E-06 0
492 63.13163 4.51E-06 0
493 62.98338 4.60E-06 0
494 62.83519 4.70E-06 0
495 62.68707 4.79E-06 0
496 62.53901 4.86E-06 0
497 62.39104 4.91E-06 0
498 62.24313 5.02E-06 0
499 62.09531 5.03E-06 0
500 61.94756 4.98E-06 0
501 61.79989 4.98E-06 0
502 61.65231 5.16E-06 0
503 61.50481 5.48E-06 0
504 61.35739 5.48E-06 0
505 61.21007 5.32E-06 0
506 61.06284 5.30E-06 0
507 60.91571 5.70E-06 0
508 60.76867 5.79E-06 0
509 60.62173 5.62E-06 0
510 60.47489 5.85E-06 0
511 60.32815 5.87E-06 0
512 60.18152 5.60E-06 0
513 60.03499 5.47E-06 0
514 59.88858 5.54E-06 0
515 59.74228 5.73E-06 0
516 59.59609 5.92E-06 0
517 59.45002 6.27E-06 0
518 59.30407 6.45E-06 0
519 59.15824 6.58E-06 0
520 59.01254 6.23E-06 0
521 58.86696 6.74E-06 0
522 58.72151 6.62E-06 0
523 58.57619 6.92E-06 0
524 58.43101 7.22E-06 0
525 58.28596 7.32E-06 0
526 58.14105 7.45E-06 0
527 57.99628 7.61E-06 0
528 57.85166 7.69E-06 0
529 57.70718 7.78E-06 0
530 57.56286 7.88E-06 0
531 57.41868 7.98E-06 0
532 57.27466 8.06E-06 0
533 57.13079 8.13E-06 0
534 56.98708 8.24E-06 0
535 56.84354 8.31E-06 0
536 56.70016 8.37E-06 0
537 56.55694 8.47E-06 0
538 56.4139 8.56E-06 0
539 56.27102 8.63E-06 0
540 56.12833 8.66E-06 0
541 55.98581 8.79E-06 0
542 55.84347 8.91E-06 0
543 55.70132 8.07E-06 0
544 55.55935 8.76E-06 0
545 55.41757 7.26E-06 0
546 55.27598 8.14E-06 0
547 55.13458 8.89E-06 0
548 54.99339 7.55E-06 0
549 54.85239 7.81E-06 0
550 54.71159 7.22E-06 0
551 54.57101 8.05E-06 0
552 54.43063 9.75E-06 0
553 54.29046 9.91E-06 0
554 54.15051 9.96E-06 0
555 54.01077 9.58E-06 0
556 53.87126 9.35E-06 0
557 53.73197 9.19E-06 0
558 53.5929 8.90E-06 0
559 53.45407 1.05E-05 0
560 53.31547 1.06E-05 0
561 53.1771 1.06E-05 0
562 53.03898 1.07E-05 0
563 52.90109 1.07E-05 0
564 52.76346 1.06E-05 0
565 52.62606 1.07E-05 0
566 52.48893 1.09E-05 0
567 52.35204 1.07E-05 0
568 52.21542 1.10E-05 0
569 52.07905 1.13E-05 0
570 51.94295 1.17E-05 0
571 51.80712 1.18E-05 0
572 51.67156 1.19E-05 0
573 51.53628 1.21E-05 0
574 51.40127 1.21E-05 0
575 51.26654 1.23E-05 0
576 51.1321 1.23E-05 0
577 50.99795 1.24E-05 0
578 50.86409 1.18E-05 0
579 50.73053 1.05E-05 0
580 50.59726 1.24E-05 0
581 50.46429 1.29E-05 0
582 50.33164 1.29E-05 0
583 50.19929 1.31E-05 0
584 50.06725 1.32E-05 0
585 49.93553 1.33E-05 0
586 49.80413 1.34E-05 0
587 49.67306 1.35E-05 0
588 49.54231 1.37E-05 0
589 49.4119 1.38E-05 0
590 49.28181 1.39E-05 0
591 49.15207 1.41E-05 0
592 49.02267 1.42E-05 0
593 48.89362 1.44E-05 0
594 48.76492 1.45E-05 0
595 48.63657 1.46E-05 0
596 48.50859 1.48E-05 0
597 48.38096 1.49E-05 0
598 48.2537 1.50E-05 0
599 48.12681 1.49E-05 0
600 48.00029 1.53E-05 0
601 47.87415 1.54E-05 0
602 47.7484 1.55E-05 0
603 47.62303 1.56E-05 0
604 47.49805 1.58E-05 0
605 47.37346 1.59E-05 0
606 47.24928 1.60E-05 0
607 47.12549 1.61E-05 0
608 47.00212 1.62E-05 0
609 46.87915 1.63E-05 0
610 46.7566 1.64E-05 0
611 46.63447 1.66E-05 0
612 46.51277 1.62E-05 0
613 46.39149 1.57E-05 0
614 46.27065 1.69E-05 0
615 46.15024 1.65E-05 0
616 46.03028 1.71E-05 0
617 45.91076 1.72E-05 0
618 45.79169 1.73E-05 0
619 45.67308 1.75E-05 0
620 45.55492 1.73E-05 0
621 45.43724 1.77E-05 0
622 45.32002 1.78E-05 0
623 45.20327 1.80E-05 0
624 45.087 1.78E-05 0
625 44.97121 1.82E-05 0
626 44.85591 1.83E-05 0
627 44.74111 1.84E-05 0
628 44.6268 1.85E-05 0
629 44.51299 1.87E-05 0
630 44.39968 1.88E-05 0
631 44.28689 1.89E-05 0
632 44.17461 1.90E-05 0
633 44.06286 1.91E-05 0
634 43.95163 1.92E-05 0
635 43.84093 1.93E-05 0
636 43.73076 1.94E-05 0
637 43.62114 1.95E-05 0
638 43.51206 1.95E-05 0
639 43.40353 1.96E-05 0
640 43.29556 1.97E-05 0
641 43.18814 1.99E-05 0
642 43.08129 1.90E-05 0
643 42.97502 2.01E-05 0
644 42.86931 1.92E-05 0
645 42.76419 1.91E-05 0
646 42.65965 2.06E-05 0
647 42.55571 2.08E-05 0
648 42.45235 2.08E-05 0
649 42.3496 2.07E-05 0
650 42.24746 2.08E-05 0
651 42.14593 1.87E-05 0
652 42.04501 2.09E-05 0
653 41.94471 2.10E-05 0
654 41.84505 2.11E-05 0
655 41.74601 2.13E-05 0
656 41.64761 2.06E-05 0
657 41.54986 2.13E-05 0
658 41.45275 2.16E-05 0
659 41.3563 2.16E-05 0
660 41.2605 2.17E-05 0
661 41.16537 2.19E-05 0
662 41.07091 2.20E-05 0
663 40.97712 2.21E-05 0
664 40.88402 2.22E-05 0
665 40.79159 2.23E-05 0
666 40.69986 2.21E-05 0
667 40.60883 2.21E-05 0
668 40.5185 2.23E-05 0
669 40.42887 2.25E-05 0
670 40.33996 2.28E-05 0
671 40.25176 2.29E-05 0
672 40.16429 2.30E-05 0
673 40.07754 2.31E-05 0
674 39.99153 2.32E-05 0
675 39.90626 2.32E-05 0
676 39.82174 2.33E-05 0
677 39.73796 2.34E-05 0
678 39.65494 2.35E-05 0
679 39.57268 2.29E-05 0
680 39.49119 2.16E-05 0
681 39.41047 2.28E-05 0
682 39.33052 1.95E-05 0
683 39.25136 1.89E-05 0
684 39.17298 2.11E-05 0
685 39.0954 2.18E-05 0
686 39.01862 2.16E-05 0
687 38.94264 2.11E-05 0
688 38.86747 2.23E-05 0
689 38.79311 2.24E-05 0
690 38.71957 2.16E-05 0
691 38.64686 2.13E-05 0
692 38.57497 2.08E-05 0
693 38.50393 2.10E-05 0
694 38.43372 2.07E-05 0
695 38.36435 2.01E-05 0
696 38.29584 2.05E-05 0
697 38.22818 2.17E-05 0
698 38.16138 2.26E-05 0
699 38.09545 2.08E-05 0
700 38.03039 2.17E-05 0
701 37.9662 2.09E-05 0
702 37.9029 2.34E-05 0
703 37.84048 2.35E-05 0
704 37.77895 2.45E-05 0
705 37.71831 2.37E-05 0
706 37.65858 2.46E-05 0
707 37.59974 2.49E-05 0
708 37.54182 2.49E-05 0
709 37.48481 2.47E-05 0
710 37.42872 2.46E-05 0
711 37.37355 2.47E-05 0
712 37.31931 2.47E-05 0
713 37.266 2.49E-05 0
714 37.21363 2.51E-05 0
715 37.1622 2.53E-05 0
716 37.11171 2.53E-05 0
717 37.06217 2.54E-05 0
718 37.01358 2.55E-05 0
719 36.96596 2.56E-05 0
720 36.91929 2.56E-05 0
721 36.87359 2.56E-05 0
722 36.82885 2.56E-05 0
723 36.78509 2.53E-05 0
724 36.74231 2.61E-05 0
725 36.70051 2.58E-05 0
726 36.65969 2.59E-05 0
727 36.61986 2.57E-05 0
728 36.58102 2.29E-05 0
729 36.54318 2.19E-05 0
730 36.50633 2.17E-05 0
731 36.47048 2.42E-05 0
732 36.43564 2.15E-05 0
733 36.40181 2.25E-05 0
734 36.36899 2.57E-05 0
735 36.33718 2.61E-05 0
736 36.30639 2.61E-05 0
737 36.27662 2.58E-05 0
738 36.24787 2.63E-05 0
739 36.22015 2.64E-05 0
740 36.19345 2.64E-05 0
741 36.16778 2.65E-05 0
742 36.14315 2.44E-05 0
743 36.11955 2.68E-05 0
744 36.09698 2.57E-05 0
745 36.07546 2.47E-05 0
746 36.05497 2.58E-05 0
747 36.03553 2.69E-05 0
748 36.01714 2.64E-05 0
749 35.99979 2.60E-05 0
750 35.98348 2.63E-05 0
751 35.96823 2.54E-05 0
752 35.95403 2.59E-05 0
753 35.94088 2.53E-05 0
754 35.92879 2.36E-05 0
755 35.91774 1.77E-05 0
756 35.90776 1.24E-05 0
757 35.89883 1.03E-05 0
758 35.89096 8.98E-06 0
759 35.88415 8.20E-06 0
760 35.87839 7.98E-06 0
761 35.8737 8.45E-06 0
762 35.87007 9.45E-06 0
763 35.86749 1.07E-05 0
764 35.86598 1.20E-05 0
765 35.86553 1.33E-05 0
766 35.86614 1.45E-05 0
767 35.8678 1.60E-05 0
768 35.87053 1.81E-05 0
769 35.87432 2.06E-05 0
770 35.87917 2.44E-05 0
771 35.88508 2.53E-05 0
772 35.89205 2.57E-05 0
773 35.90008 2.56E-05 0
774 35.90916 2.54E-05 0
775 35.9193 2.53E-05 0
776 35.9305 2.54E-05 0
777 35.94275 2.54E-05 0
778 35.95605 2.52E-05 0
779 35.97041 2.53E-05 0
780 35.98582 2.50E-05 0
781 36.00227 2.51E-05 0
782 36.01978 2.50E-05 0
783 36.03833 2.54E-05 0
784 36.05792 2.64E-05 0
785 36.07856 2.58E-05 0
786 36.10024 2.22E-05 0
787 36.12295 2.05E-05 0
788 36.14671 2.09E-05 0
789 36.17149 2.24E-05 0
790 36.19731 2.25E-05 0
791 36.22416 2.48E-05 0
792 36.25204 2.35E-05 0
793 36.28094 2.17E-05 0
794 36.31086 2.06E-05 0
795 36.3418 2.11E-05 0
796 36.37376 2.09E-05 0
797 36.40673 2.04E-05 0
798 36.44071 2.06E-05 0
799 36.4757 2.12E-05 0
800 36.51169 2.23E-05 0
801 36.54868 2.50E-05 0
802 36.58667 2.47E-05 0
803 36.62566 2.44E-05 0
804 36.66563 2.54E-05 0
805 36.7066 2.42E-05 0
806 36.74855 2.00E-05 0
807 36.79147 1.74E-05 0
808 36.83538 1.74E-05 0
809 36.88025 1.68E-05 0
810 36.9261 1.55E-05 0
811 36.9729 1.68E-05 0
812 37.02067 1.97E-05 0
813 37.0694 1.73E-05 0
814 37.11908 1.69E-05 0
815 37.16971 1.58E-05 0
816 37.22128 1.75E-05 0
817 37.27379 1.85E-05 0
818 37.32724 2.04E-05 0
819 37.38161 1.85E-05 0
820 37.43692 2.06E-05 0
821 37.49314 2.09E-05 0
822 37.55029 2.01E-05 0
823 37.60835 2.04E-05 0
824 37.66731 1.92E-05 0
825 37.72718 1.69E-05 0
826 37.78795 1.60E-05 0
827 37.84961 1.50E-05 0
828 37.91216 1.47E-05 0
829 37.9756 1.52E-05 0
830 38.03991 1.83E-05 0
831 38.1051 1.82E-05 0
832 38.17116 1.67E-05 0
833 38.23809 1.75E-05 0
834 38.30587 2.15E-05 0
835 38.37451 2.12E-05 0
836 38.444 2.27E-05 0
837 38.51433 2.33E-05 0
838 38.5855 2.32E-05 0
839 38.65751 2.36E-05 0
840 38.73034 2.36E-05 0
841 38.804 2.34E-05 0
842 38.87848 2.33E-05 0
843 38.95377 2.32E-05 0
844 39.02987 2.30E-05 0
845 39.10677 2.18E-05 0
846 39.18447 2.00E-05 0
847 39.26296 2.12E-05 0
848 39.34224 2.32E-05 0
849 39.4223 2.21E-05 0
850 39.50313 2.27E-05 0
851 39.58474 2.21E-05 0
852 39.66711 2.32E-05 0
853 39.75024 2.38E-05 0
854 39.83413 2.36E-05 0
855 39.91877 2.26E-05 0
856 40.00415 2.35E-05 0
857 40.09026 2.36E-05 0
858 40.17712 2.29E-05 0
859 40.2647 2.36E-05 0
860 40.353 2.36E-05 0
861 40.44202 2.34E-05 0
862 40.53175 2.32E-05 0
863 40.62218 2.31E-05 0
864 40.71332 2.30E-05 0
865 40.80515 2.18E-05 0
866 40.89767 2.27E-05 0
867 40.99088 2.27E-05 0
868 41.08477 2.27E-05 0
869 41.17933 2.27E-05 0
870 41.27456 2.25E-05 0
871 41.37045 2.19E-05 0
872 41.467 2.16E-05 0
873 41.5642 2.14E-05 0
874 41.66205 2.23E-05 0
875 41.76055 2.19E-05 0
876 41.85968 2.16E-05 0
877 41.95944 2.15E-05 0
878 42.05982 1.99E-05 0
879 42.16083 2.10E-05 0
880 42.26245 2.13E-05 0
881 42.36469 2.10E-05 0
882 42.46753 2.08E-05 0
883 42.57097 2.08E-05 0
884 42.675 2.08E-05 0
885 42.77962 2.01E-05 0
886 42.88483 2.04E-05 0
887 42.99062 2.04E-05 0
888 43.09698 2.00E-05 0
889 43.20392 1.95E-05 0
890 43.31141 1.98E-05 0
891 43.41947 2.00E-05 0
892 43.52808 1.99E-05 0
893 43.63724 1.75E-05 0
894 43.74694 1.71E-05 0
895 43.85719 1.87E-05 0
896 43.96797 1.88E-05 0
897 44.07927 1.86E-05 0
898 44.19111 1.60E-05 0
899 44.30346 1.61E-05 0
900 44.41633 1.76E-05 0
901 44.5297 1.88E-05 0
902 44.64359 1.65E-05 0
903 44.75797 1.75E-05 0
904 44.87285 1.90E-05 0
905 44.98822 1.86E-05 0
906 45.10408 1.88E-05 0
907 45.22042 1.85E-05 0
908 45.33724 1.82E-05 0
909 45.45453 1.79E-05 0
910 45.57228 1.80E-05 0
911 45.69051 1.73E-05 0
912 45.80919 1.65E-05 0
913 45.92832 1.52E-05 0
914 46.04791 1.53E-05 0
915 46.16794 1.49E-05 0
916 46.28841 1.36E-05 0
917 46.40931 1.49E-05 0
918 46.53065 1.53E-05 0
919 46.65242 1.41E-05 0
920 46.77461 1.47E-05 0
921 46.89722 1.57E-05 0
922 47.02025 1.50E-05 0
923 47.14369 1.27E-05 0
924 47.26753 1.26E-05 0
925 47.39177 1.32E-05 0
926 47.51642 1.39E-05 0
927 47.64145 1.37E-05 0
928 47.76688 1.31E-05 0
929 47.89269 1.42E-05 0
930 48.01889 1.55E-05 0
931 48.14546 1.56E-05 0
932 48.2724 1.54E-05 0
933 48.39972 1.48E-05 0
934 48.5274 1.52E-05 0
935 48.65544 1.49E-05 0
936 48.78384 1.47E-05 0
937 48.91259 1.49E-05 0
938 49.0417 1.47E-05 0
939 49.17115 1.44E-05 0
940 49.30094 1.43E-05 0
941 49.43107 1.41E-05 0
942 49.56153 1.40E-05 0
943 49.69233 1.38E-05 0
944 49.82345 1.37E-05 0
945 49.9549 1.36E-05 0
946 50.08666 1.35E-05 0
947 50.21875 1.33E-05 0
948 50.35114 1.32E-05 0
949 50.48384 1.32E-05 0
950 50.61685 1.31E-05 0
951 50.75016 1.30E-05 0
952 50.88377 1.28E-05 0
953 51.01768 1.27E-05 0
954 51.15187 1.25E-05 0
955 51.28636 1.22E-05 0
956 51.42112 1.18E-05 0
957 51.55617 1.17E-05 0
958 51.6915 1.16E-05 0
959 51.8271 1.14E-05 0
960 51.96297 1.12E-05 0
961 52.09911 1.09E-05 0
962 52.23551 1.08E-05 0
963 52.37217 1.07E-05 0
964 52.50909 1.05E-05 0
965 52.64627 1.08E-05 0
966 52.7837 1.09E-05 0
967 52.92137 1.08E-05 0
968 53.05929 1.10E-05 0
969 53.19745 1.11E-05 0
970 53.33585 1.10E-05 0
971 53.47449 1.10E-05 0
972 53.61336 1.08E-05 0
973 53.75245 1.08E-05 0
974 53.89178 1.06E-05 0
975 54.03132 1.05E-05 0
976 54.17109 1.03E-05 0
977 54.31108 1.01E-05 0
978 54.45127 9.97E-06 0
979 54.59168 9.81E-06 0
980 54.7323 9.75E-06 0
981 54.87313 9.72E-06 0
982 55.01415 9.74E-06 0
983 55.15538 9.62E-06 0
984 55.2968 9.61E-06 0
985 55.43842 9.59E-06 0
986 55.58023 9.59E-06 0
987 55.72222 9.53E-06 0
988 55.86441 9.42E-06 0
989 56.00677 9.36E-06 0
990 56.14932 9.27E-06 0
991 56.29204 9.17E-06 0
992 56.43494 9.10E-06 0
993 56.57801 9.01E-06 0
994 56.72125 8.93E-06 0
995 56.86465 8.83E-06 0
996 57.00822 8.72E-06 0
997 57.15195 8.63E-06 0
998 57.29584 8.53E-06 0
999 57.43989 8.44E-06 0
1000 57.58409 8.34E-06 0
1001 57.72844 8.24E-06 0
1002 57.87294 8.15E-06 0
1003 58.01758 8.04E-06 0
1004 58.16237 7.92E-06 0
1005 58.3073 7.83E-06 0
1006 58.45237 7.71E-06 0
1007 58.59757 7.59E-06 0
1008 58.74291 7.47E-06 0
1009 58.88838 7.31E-06 0
1010 59.03397 7.14E-06 0
1011 59.1797 6.92E-06 0
1012 59.32554 6.74E-06 0
1013 59.47151 6.65E-06 0
1014 59.6176 6.54E-06 0
1015 59.7638 6.58E-06 0
1016 59.91012 6.60E-06 0
1017 60.05655 6.59E-06 0
1018 60.20309 6.53E-06 0
1019 60.34974 6.48E-06 0
1020 60.49649 6.41E-06 0
1021 60.64335 6.34E-06 0
1022 60.7903 6.26E-06 0
1023 60.93735 6.18E-06 0
1024 61.0845 6.09E-06 0
1025 61.23175 6.01E-06 0
1026 61.37908 5.95E-06 0
1027 61.52651 5.87E-06 0
1028 61.67402 5.78E-06 0
1029 61.82162 5.70E-06 0
1030 61.9693 5.63E-06 0
1031 62.11706 5.57E-06 0
1032 62.2649 5.51E-06 0
1033 62.41281 5.43E-06 0
1034 62.5608 5.36E-06 0
1035 62.70886 5.26E-06 0
1036 62.85699 5.17E-06 0
1037 63.00519 5.08E-06 0
1038 63.15345 4.96E-06 0
1039 63.30178 4.90E-06 0
1040 63.45017 4.84E-06 0
1041 63.59862 4.72E-06 0
1042 63.74713 4.59E-06 0
1043 63.89569 4.46E-06 0
1044 64.04431 4.33E-06 0
1045 64.19297 4.13E-06 0
1046 64.34169 3.78E-06 0
1047 64.49045 4.04E-06 0
1048 64.63926 4.05E-06 0
1049 64.78811 4.03E-06 0
1050 64.93701 4.05E-06 0
1051 65.08594 3.97E-06 0
1052 65.23491 3.91E-06 0
1053 65.38391 3.87E-06 0
1054 65.53295 3.81E-06 0
1055 65.68202 3.74E-06 0
1056 65.83112 3.65E-06 0
1057 65.98025 3.58E-06 0
1058 66.1294 3.51E-06 0
1059 66.27858 3.40E-06 0
1060 66.42778 3.32E-06 0
1061 66.577 3.25E-06 0
1062 66.72623 3.15E-06 0
1063 66.87549 3.05E-06 0
1064 67.02476 2.97E-06 0
1065 67.17404 2.89E-06 0
1066 67.32333 2.84E-06 0
1067 67.47263 2.77E-06 0
1068 67.62193 2.70E-06 0
1069 67.77124 2.62E-06 0
1070 67.92056 2.59E-06 0
1071 68.06987 2.54E-06 0
1072 68.21919 2.48E-06 0
1073 68.3685 2.44E-06 0
1074 68.51781 2.32E-06 0
1075 68.66711 2.24E-06 0
1076 68.81641 2.18E-06 0
1077 68.9657 2.18E-06 0
1078 69.11497 2.13E-06 0
1079 69.26423 2.17E-06 0
1080 69.41348 2.22E-06 0
1081 69.56271 2.21E-06 0
1082 69.71192 2.19E-06 0
1083 69.86111 2.15E-06 0
1084 70.01028 2.10E-06 0
1085 70.15942 2.06E-06 0
1086 70.30854 2.02E-06 0
1087 70.45764 1.98E-06 0
1088 70.6067 1.95E-06 0
1089 70.75573 1.89E-06 0
1090 70.90473 1.82E-06 0
1091 71.0537 1.80E-06 0
1092 71.20263 1.75E-06 0
1093 71.35152 1.71E-06 0
1094 71.50037 1.66E-06 0
1095 71.64918 1.61E-06 0
1096 71.79795 1.55E-06 0
1097 71.94668 1.49E-06 0
1098 72.09535 1.46E-06 0
1099 72.24398 1.46E-06 0
1100 72.39256 1.44E-06 0
1101 72.54109 1.42E-06 0
1102 72.68957 1.37E-06 0
1103 72.83799 1.33E-06 0
1104 72.98635 1.29E-06 0
1105 73.13466 1.27E-06 0
1106 73.2829 1.25E-06 0
1107 73.43108 1.23E-06 0
1108 73.5792 1.20E-06 0
1109 73.72726 1.19E-06 0
1110 73.87525 1.17E-06 0
1111 74.02317 1.13E-06 0
1112 74.17102 1.12E-06 0
1113 74.3188 1.11E-06 0
1114 74.4665 1.09E-06 0
1115 74.61413 1.07E-06 0
1116 74.76169 1.05E-06 0
1117 74.90916 1.03E-06 0
1118 75.05656 1.00E-06 0
1119 75.20387 9.80E-07 0
1120 75.3511 9.52E-07 0
1121 75.49825 9.29E-07 0
1122 75.64531 9.17E-07 0
1123 75.79228 8.96E-07 0
1124 75.93916 8.82E-07 0
1125 76.08595 8.50E-07 0
1126 76.23264 8.28E-07 0
1127 76.37924 8.17E-07 0
1128 76.52574 8.00E-07 0
1129 76.67215 7.79E-07 0
1130 76.81845 7.61E-07 0
1131 76.96466 7.40E-07 0
1132 77.11076 7.23E-07 0
1133 77.25675 7.06E-07 0
1134 77.40264 6.91E-07 0
1135 77.54843 6.71E-07 0
1136 77.6941 6.52E-07 0
1137 77.83966 6.35E-07 0
1138 77.9851 6.17E-07 0
1139 78.13043 6.07E-07 0
1140 78.27565 5.86E-07 0
1141 78.42075 5.71E-07 0
1142 78.56573 5.57E-07 0
1143 78.71058 5.42E-07 0
1144 78.85532 5.25E-07 0
1145 78.99992 5.06E-07 0
1146 79.14441 4.88E-07 0
1147 79.28876 4.76E-07 0
1148 79.43299 4.56E-07 0
1149 79.57708 4.50E-07 0
1150 79.72104 4.35E-07 0
1151 79.86487 4.27E-07 0
1152 80.00856 4.14E-07 0
1153 80.15211 3.97E-07 0
1154 80.29553 3.88E-07 0
1155 80.4388 3.77E-07 0
1156 80.58193 3.63E-07 0
1157 80.72491 3.53E-07 0
1158 80.86775 3.40E-07 0
1159 81.01044 3.31E-07 0
1160 81.15298 3.20E-07 0
1161 81.29537 3.10E-07 0
1162 81.43761 3.02E-07 0
1163 81.5797 2.88E-07 0
1164 81.72162 2.79E-07 0
1165 81.86339 2.66E-07 0
1166 82.00501 2.58E-07 0
1167 82.14646 2.53E-07 0
1168 82.28774 2.47E-07 0
1169 82.42887 2.40E-07 0
1170 82.56982 2.30E-07 0
1171 82.71061 2.24E-07 0
1172 82.85123 2.15E-07 0
1173 82.99168 2.07E-07 0
1174 83.13196 2.03E-07 0
1175 83.27206 1.92E-07 0
1176 83.41198 1.86E-07 0
1177 83.55173 1.83E-07 0
1178 83.6913 1.75E-07 0
1179 83.83069 1.69E-07 0
1180 83.9699 1.65E-07 0
1181 84.10892 1.63E-07 0
1182 84.24775 1.54E-07 0
1183 84.3864 1.51E-07 0
1184 84.52485 1.45E-07 0
1185 84.66312 1.37E-07 0
1186 84.80119 1.35E-07 0
1187 84.93907 1.27E-07 0
1188 85.07676 1.25E-07 0
1189 85.21424 1.22E-07 0
1190 85.35152 1.17E-07 0
1191 85.48861 1.12E-07 0
1192 85.62549 1.09E-07 0
1193 85.76216 1.04E-07 0
1194 85.89863 1.01E-07 0
1195 86.03489 9.79E-08 0
1196 86.17094 9.61E-08 0
1197 86.30678 9.06E-08 0
1198 86.44241 8.87E-08 0
1199 86.57782 8.60E-08 0
1200 86.71301 8.42E-08 0
1201 86.84799 7.87E-08 0
1202 86.98274 7.69E-08 0
1203 87.11728 7.32E-08 0
1204 87.25159 6.77E-08 0
1205 87.38567 6.59E-08 0
1206 87.51953 6.13E-08 0
1207 87.65315 5.86E-08 0
1208 87.78655 5.68E-08 0
1209 87.91971 5.49E-08 0
1210 88.05264 5.49E-08 0
1211 88.18534 4.94E-08 0
1212 88.31779 4.85E-08 0
1213 88.45001 4.58E-08 0
1214 88.58198 4.39E-08 0
1215 88.71371 4.30E-08 0
1216 88.8452 3.94E-08 0
1217 88.97644 3.85E-08 0
1218 89.10743 3.48E-08 0
1219 89.23818 3.20E-08 0
1220 89.36866 3.11E-08 0
1221 89.4989 2.74E-08 0
1222 89.62888 2.84E-08 0
1223 89.7586 2.47E-08 0
1224 89.88807 2.47E-08 0
1225 90.01727 2.19E-08 0
1226 90.14621 1.83E-08 0
1227 90.27489 1.92E-08 0
1228 90.4033 1.83E-08 0
1229 90.53144 1.64E-08 0
1230 90.65931 1.18E-08 0
1231 90.78691 1.27E-08 0
1232 90.91423 1.09E-08 0
1233 91.04128 9.07E-09 0
1234 91.16806 9.99E-09 0
1235 91.29455 5.38E-09 0
1236 91.42076 6.31E-09 0
1237 91.54669 6.31E-09 0
1238 91.67234 4.46E-09 0
1239 91.7977 4.47E-09 0
1240 91.92277 2.62E-09 0
1241 92.04755 3.54E-09 0
1242 92.17204 7.80E-10 0
1243 92.29623 1.70E-09 0
1244 92.42013 7.80E-10 0
1245 92.54373 1.06E-09 0
1246 92.66704 1.06E-09 0
1247 92.79004 4.75E-09 0
1248 92.91273 1.99E-09 0
1249 93.03513 3.83E-09 0
1250 93.15721 4.75E-09 0
1251 93.27899 4.75E-09 0
1252 93.40046 6.60E-09 0
1253 93.52161 5.68E-09 0
1254 93.64245 7.52E-09 0
1255 93.76297 6.60E-09 0
1256 93.88318 5.68E-09 0
1257 94.00306 6.60E-09 0
1258 94.12263 1.06E-09 0
1259 94.24187 4.76E-09 0
1260 94.36078 5.68E-09 0
1261 94.47936 6.61E-09 0
1262 94.59762 5.68E-09 0
1263 94.71555 1.99E-09 0
1264 94.83314 3.84E-09 0
1265 94.95039 1.07E-09 0
1266 95.06731 6.61E-09 0
1267 95.18389 7.53E-09 0
1268 95.30013 1.99E-09 0
1269 95.41602 3.84E-09 0
1270 95.53157 1.99E-09 0
1271 95.64678 4.76E-09 0
1272 95.76163 3.84E-09 0
1273 95.87614 3.84E-09 0
1274 95.99029 4.76E-09 0
1275 96.10408 1.99E-09 0
1276 96.21752 3.84E-09 0
1277 96.33061 2.92E-09 0
1278 96.44333 3.84E-09 0
1279 96.55569 3.84E-09 0
1280 96.66768 2.92E-09 0
1281 96.77931 4.77E-09 0
1282 96.89057 2.92E-09 0
1283 97.00146 4.77E-09 0
1284 97.11197 3.84E-09 0
1285 97.22212 3.84E-09 0
1286 97.33188 3.84E-09 0
1287 97.44127 1.07E-09 0
1288 97.55028 3.84E-09 0
1289 97.65891 1.99E-09 0
1290 97.76715 2.92E-09 0
1291 97.87501 3.85E-09 0
1292 97.98248 1.99E-09 0
1293 98.08956 3.85E-09 0
1294 98.19625 2.92E-09 0
1295 98.30254 1.99E-09 0
1296 98.40844 1.07E-09 0
1297 98.51394 1.99E-09 0
1298 98.61904 3.85E-09 0
1299 98.72374 2.92E-09 0
1300 98.82803 2.92E-09 0
1301 98.93192 1.07E-09 0
1302 99.0354 1.07E-09 0
1303 99.13847 1.07E-09 0
1304 99.24113 1.42E-10 0
1305 99.34338 1.07E-09 0
1306 99.44521 1.42E-10 0
1307 99.54663 1.07E-09 0
1308 99.64762 2.92E-09 0
1309 99.74819 1.42E-10 0
1310 99.84834 2.00E-09 0
1311 99.94806 1.07E-09 0
1312 100.0474 2.00E-09 0
1313 100.1462 1.07E-09 0
1314 100.2447 1.07E-09 0
1315 100.3427 2.92E-09 0
1316 100.4402 1.42E-10 0
1317 100.5374 2.92E-09 0
1318 100.634 1.07E-09 0
1319 100.7303 1.42E-10 0
1320 100.8261 1.07E-09 0
1321 100.9215 1.42E-10 0
1322 101.0164 2.00E-09 0
1323 101.1108 1.42E-10 0
1324 101.2048 1.42E-10 0
1325 101.2984 1.07E-09 0
1326 101.3915 7.86E-10 0
1327 101.4841 1.07E-09 0
1328 101.5763 7.86E-10 0
1329 101.6681 2.00E-09 0
1330 101.7593 1.07E-09 0
1331 101.8501 1.42E-10 0
1332 101.9404 1.42E-10 0
1333 102.0303 7.86E-10 0
1334 102.1197 7.86E-10 0
1335 102.2086 7.86E-10 0
1336 102.297 1.42E-10 0
1337 102.385 1.42E-10 0
1338 102.4725 7.86E-10 0
1339 102.5595 7.86E-10 0
1340 102.646 1.42E-10 0
1341 102.7321 7.86E-10 0
1342 102.8176 1.42E-10 0
1343 102.9027 7.86E-10 0
1344 102.9872 1.42E-10 0
1345 103.0713 1.72E-09 0
1346 103.1549 1.07E-09 0
1347 103.238 7.86E-10 0
1348 103.3206 1.42E-10 0
1349 103.4027 7.86E-10 0
1350 103.4843 1.72E-09 0
1351 103.5654 7.86E-10 0
1352 103.6459 7.87E-10 0
1353 103.726 1.07E-09 0
1354 103.8056 1.42E-10 0
1355 103.8846 7.87E-10 0
1356 103.9632 7.87E-10 0
1357 104.0412 1.72E-09 0
1358 104.1187 7.87E-10 0
1359 104.1957 3.57E-09 0
1360 104.2721 7.87E-10 0
1361 104.3481 7.87E-10 0
1362 104.4235 2.65E-09 0
1363 104.4984 1.72E-09 0
1364 104.5728 2.65E-09 0
1365 104.6466 7.87E-10 0
1366 104.7199 7.87E-10 0
1367 104.7927 2.65E-09 0
1368 104.8649 1.43E-10 0
1369 104.9366 1.72E-09 0
1370 105.0078 1.07E-09 0
1371 105.0784 7.87E-10 0
1372 105.1484 1.43E-10 0
1373 105.218 1.72E-09 0
1374 105.287 1.72E-09 0
1375 105.3554 1.43E-10 0
1376 105.4233 7.87E-10 0
1377 105.4906 1.07E-09 0
1378 105.5574 7.87E-10 0
1379 105.6236 1.07E-09 0
1380 105.6893 1.43E-10 0
1381 105.7544 7.87E-10 0
1382 105.819 1.07E-09 0
1383 105.883 1.07E-09 0
1384 105.9464 2.00E-09 0
1385 106.0093 1.07E-09 0
1386 106.0716 7.87E-10 0
1387 106.1333 1.43E-10 0
1388 106.1945 7.87E-10 0
1389 106.255 7.87E-10 0
1390 106.3151 7.87E-10 0
1391 106.3745 7.87E-10 0
1392 106.4334 1.43E-10 0
1393 106.4917 1.72E-09 0
1394 106.5494 1.43E-10 0
1395 106.6065 2.65E-09 0
1396 106.663 2.65E-09 0
1397 106.719 1.72E-09 0
1398 106.7744 2.65E-09 0
1399 106.8292 7.88E-10 0
1400 106.8834 2.65E-09 0
1401 106.937 7.88E-10 0
1402 106.99 1.72E-09 0
1403 107.0424 3.58E-09 0
1404 107.0942 7.88E-10 0
1405 107.1455 2.65E-09 0
1406 107.1961 7.88E-10 0
1407 107.2462 2.65E-09 0
1408 107.2956 2.65E-09 0
1409 107.3444 7.88E-10 0
1410 107.3927 1.72E-09 0
1411 107.4403 1.72E-09 0
1412 107.4873 2.65E-09 0
1413 107.5337 1.72E-09 0
1414 107.5795 1.72E-09 0
1415 107.6247 2.65E-09 0
1416 107.6693 7.88E-10 0
1417 107.7133 2.65E-09 0
1418 107.7567 1.43E-10 0
1419 107.7994 7.88E-10 0
1420 107.8416 1.07E-09 0
1421 107.8831 1.43E-10 0
1422 107.924 1.72E-09 0
1423 107.9643 1.43E-10 0
1424 108.0039 7.88E-10 0
1425 108.043 1.43E-10 0
1426 108.0814 1.43E-10 0
1427 108.1192 1.43E-10 0
1428 108.1563 2.00E-09 0
1429 108.1929 7.88E-10 0
1430 108.2288 1.72E-09 0
1431 108.2641 2.65E-09 0
1432 108.2987 7.88E-10 0
1433 108.3327 6.66E-09 0
1434 108.3661 1.07E-09 0
1435 108.3989 2.94E-09 0
1436 108.431 1.43E-10 0
1437 108.4625 2.00E-09 0
1438 108.4934 4.80E-09 0
1439 108.5236 5.73E-09 0
