24 1001
Beverley Allan and Hugh Coe
 University of East Anglia, Norwich, UK 
 Differential Optical Absorption Spectrometer, Mace Head, Eire 
ACSOE OXICOA EASE'96
1 1
1996 07 24  1997 01 29
0
Time in fractional Julian Day
3
1.0 1.0 1
999 999 999
NITROGEN DIOXIDE (pptv)
ERROR FROM ANALYSIS (pptv)
ERROR FLAG
2
Missing data markers represent poor raw data / hardware problems.   
Detection limit for NO2 is 50 ppt determined from the analysis.   
5   
THIS-FILE-NAME=mh960724.nx4   
THIS-FILE-VERSION=1   
THIS-FILE-ENDS=1996 07 24   
E-MAIL-CONTACT=b.allan@uea.ac.uk   
Jday NO2 Analysis Error Error Flag
206.0035	412.71	45.46	0
206.0104	373.5	43.86	0
206.0174	346.4	44.1	0
206.0243	332.48	43.75	0
206.0382	282.5	43.22	0
206.0451	333.64	43.56	0
206.0521	297.34	43.63	0
206.059	298.6	43.38	0
206.066	280.85	43.47	0
206.0729	110.89	47.11	0
206.0799	298.3	43.93	0
206.0868	265.09	43.34	0
206.0938	294.73	44.31	0
206.1007	312.81	44.19	0
206.1076	299.4	44.87	0
206.1146	300.12	44.2	0
206.1215	286.05	43.34	0
206.1285	264.24	43.97	0
206.1354	279.19	43.53	0
206.1424	277.18	43.15	0
206.1493	297.67	42.43	0
206.1563	311.94	42.52	0
206.1632	295.37	42.18	0
206.1701	272.32	42.38	0
206.1771	267.66	41.83	0
206.184	262.23	41.47	0
206.191	255.33	41.64	0
206.1979	260.34	41.15	0
206.2049	258	42	0
206.2118	243.4	41.84	0
206.2188	246.49	42.05	0
206.2257	256.2	41.47	0
206.2326	242.83	41.28	0
206.2396	238.79	40.24	0
206.2465	276.59	41.01	0
206.2535	240.17	41.79	0
206.2604	224.95	41.06	0
206.2674	228.06	41.45	0
206.2743	221.08	40.93	0
206.2813	206.09	39.61	0
206.2882	210.01	40.92	0
206.2951	247.43	41.33	0
206.3021	257.78	41.57	0
206.309	262.91	40.92	0
206.316	282.89	40.17	0
206.3229	303.62	39.76	0
206.3299	272.58	40.49	0
206.3368	368.34	37.54	0
206.3438	344.11	36.86	0
206.3924	999	999	3
206.3993	260.71	36.38	0
206.4063	267	35.89	0
206.4132	262.23	37.15	0
206.4201	254.37	37.89	0
206.4271	263.33	37.9	0
206.434	283.13	39.53	0
206.441	288.76	40.97	0
206.4479	254.92	37.72	0
206.4549	238.69	38.91	0
206.4618	269.81	40.16	0
206.4688	262.72	39.69	0
206.4757	276.92	39.76	0
206.4826	226.01	38.67	0
206.4896	278.21	38.54	0
206.4965	307.31	38.2	0
206.5035	327.42	38.19	0
206.5104	311.28	38.36	0
206.5174	329.22	39.89	0
206.5243	315.5	40.24	0
206.5313	314.07	39.63	0
206.5382	279.62	39.88	0
206.5451	272.36	40.32	0
206.5521	288.37	39.12	0
206.559	263.59	35.32	0
206.566	303.13	34.81	0
206.5729	320.58	34.79	0
206.5799	356.65	35.26	0
206.5868	341.7	36.17	0
206.5938	320.94	36.05	0
206.6007	341.89	36.09	0
206.6076	346.57	35.17	0
206.6333	373.14	35.91	0
206.6403	999	999	3
206.6472	288.36	35.52	0
206.6542	344.16	35.72	0
206.6611	339.34	35.33	0
206.6681	292.11	36.95	0
206.675	295.42	38.28	0
206.6819	321.19	39.99	0
206.6889	317.27	37.21	0
206.6958	382.56	35.8	0
206.7028	406.21	36.83	0
206.7097	397.64	37.5	0
206.7167	374.05	37.09	0
206.7236	322.06	36.8	0
206.7306	320.02	34.53	0
206.7521	295.66	35.93	0
206.759	383.49	36.83	0
206.766	255.35	37.06	0
206.7729	313.4	39.77	0
206.7799	313.69	38.39	0
206.7868	287.88	38.29	0
206.7938	295.47	39.41	0
206.8007	341.48	38.7	0
206.8076	406.56	39.87	0
206.8146	385.66	39.78	0
206.8215	366.93	38.2	0
206.8285	329.76	38.68	0
206.8354	338.41	38.87	0
206.8424	334.8	39.03	0
206.8493	347.97	39.04	0
206.8563	343.15	39.42	0
206.8632	335.31	39.32	0
206.8701	325.84	39.46	0
206.8771	301.69	40.07	0
206.884	295.63	40.01	0
206.891	332.24	40.62	0
206.8979	337.36	40.64	0
206.9049	334.79	41.01	0
206.9118	299.99	40.55	0
206.9188	270.75	40.25	0
206.9257	297.01	41.91	0
206.9326	358.33	41.34	0
206.9396	436.14	41.89	0
206.9465	419.73	42.45	0
206.9535	308.86	42.92	0
206.9604	279	43.73	0
206.9674	263.69	42.61	0
