24 1001
Beverley Allan and Hugh Coe
 University of East Anglia, Norwich, UK 
 Differential Optical Absorption Spectrometer, Mace Head, Eire 
ACSOE OXICOA EASE'96
1 1
1996 07 17  1997 01 29
0
Time in fractional Julian Day
3
1.0 1.0 1
999 999 999
NITROGEN DIOXIDE (pptv)
ERROR FROM ANALYSIS (pptv)
ERROR FLAG
2
Missing data markers represent poor raw data / hardware problems.   
Detection limit for NO2 is 95 ppt determined from the analysis.   
5   
THIS-FILE-NAME=mh960717.nx4   
THIS-FILE-VERSION=1   
THIS-FILE-ENDS=1996 07 17   
E-MAIL-CONTACT=b.allan@uea.ac.uk   
Jday NO2 Analysis Error Error Flag
199.2805	1395.24	94.45	1
199.2874	1348.62	98.76	1
199.2944	1103.14	95.36	1
199.3013	1043.63	94.36	1
199.3083	962.81	95.9	1
199.3152	895.26	94.2	1
199.3222	839.27	92.95	1
199.3291	848.05	95.18	1
199.336	707.91	94.01	1
199.343	694.76	93.32	1
199.3499	629.14	92.97	1
199.3569	542.23	93.34	1
199.3638	513.39	93.08	1
199.3708	460.81	94.31	1
199.3777	413.32	94.62	1
199.3847	357.16	95.45	1
199.3916	356.21	94.65	1
199.3985	359.55	93.74	1
199.4055	359.28	94.32	1
199.4124	328.59	94.45	1
199.4194	283.69	93.84	1
199.4263	312.57	94.73	1
199.4333	287.77	94.88	1
199.4402	288.54	94.26	1
199.4472	240.06	94.5	1
199.4541	258.06	95.02	1
199.461	305.36	93.96	1
199.468	430.24	94.62	1
199.4749	419.11	95.1	1
199.4819	377.42	94.69	1
199.4888	375.91	95.7	1
199.4958	312.59	95.12	1
199.5027	279.56	95.16	1
199.5097	250.43	95.36	1
199.5166	258.8	94.11	1
199.5235	271.23	95.01	1
199.5305	276.11	94.31	1
199.5374	283.38	94.18	1
199.5444	301.01	93.71	1
199.5513	313.95	93.67	1
199.5583	313.27	93.88	1
199.5652	296.72	92.99	1
199.5722	282.22	94.16	1
199.5791	279.14	93.76	1
199.586	281.09	92.52	1
199.593	257.64	93.32	1
199.5999	239.31	93.04	1
199.6069	321.65	94.63	1
199.6138	287.02	93.9	1
199.6208	374.88	92.76	1
199.6277	415.2	93.47	1
199.6347	436.24	92.9	1
199.6416	447.92	91.86	1
199.6485	452.01	92.58	1
199.6555	390.03	93.33	1
199.6624	416.27	95.65	1
199.6694	366.8	96.29	1
199.6763	314.51	95.31	1
199.6833	275.52	94.89	1
199.6902	301.64	92.79	1
199.6972	272.99	93.18	1
